Optical_Path_Difference (cm),"Intencity, a.u."
-0.25,0.001397873
-0.2498611,0.001675928
-0.2497222,0.002460177
-0.2495833,0.003081257
-0.2494444,0.003560478
-0.2493056,0.002905274
-0.2491667,0.001606787
-0.2490278,-0.00041
-0.2488889,-0.00199
-0.24875,-0.00312
-0.2486111,-0.00324
-0.2484722,-0.0032
-0.2483333,-0.0028
-0.2481944,-0.00249
-0.2480556,-0.00138
-0.2479167,0.000121439
-0.2477778,0.002061273
-0.2476389,0.003244425
-0.2475,0.003803665
-0.2473611,0.003204937
-0.2472222,0.002333964
-0.2470833,0.000995094
-0.2469444,-0.00000224
-0.2468056,-0.00119
-0.2466667,-0.00207
-0.2465278,-0.00316
-0.2463889,-0.00361
-0.24625,-0.00349
-0.2461111,-0.00222
-0.2459722,-0.0007
-0.2458333,0.001056487
-0.2456944,0.002116556
-0.2455556,0.002912576
-0.2454167,0.003013755
-0.2452778,0.002986486
-0.2451389,0.002407128
-0.245,0.001826877
-0.2448611,0.000634039
-0.2447222,-0.000537
-0.2445833,-0.0019
-0.2444444,-0.00248
-0.2443056,-0.00259
-0.2441667,-0.00185
-0.2440278,-0.00121
-0.2438889,-0.000418
-0.24375,-0.0000799
-0.2436111,0.000429893
-0.2434722,0.000694538
-0.2433333,0.001260037
-0.2431944,0.001437659
-0.2430556,0.001469249
-0.2429167,0.000767256
-0.2427778,8.74646E-05
-0.2426389,-0.000663
-0.2425,-0.000684
-0.2423611,-0.000617
-0.2422222,-0.000359
-0.2420833,-0.000652
-0.2419444,-0.000855
-0.2418056,-0.00118
-0.2416667,-0.000818
-0.2415278,-0.000318
-0.2413889,0.000463719
-0.24125,0.000552232
-0.2411111,0.000407095
-0.2409722,-0.0000867
-0.2408333,0.000154073
-0.2406944,0.000660861
-0.2405556,0.001544202
-0.2404167,0.001667733
-0.2402778,0.001388038
-0.2401389,0.000516916
-0.24,9.46171E-05
-0.2398611,-0.000174
-0.2397222,1.37038E-05
-0.2395833,-0.000351
-0.2394444,-0.000985
-0.2393056,-0.00203
-0.2391667,-0.00223
-0.2390278,-0.00173
-0.2388889,-0.000291
-0.23875,0.000794376
-0.2386111,0.001444066
-0.2384722,0.001196558
-0.2383333,0.001120711
-0.2381944,0.001075561
-0.2380556,0.001415009
-0.2379167,0.001127566
-0.2377778,0.000336016
-0.2376389,-0.00125
-0.2375,-0.0024
-0.2373611,-0.00286
-0.2372222,-0.00205
-0.2370833,-0.00109
-0.2369444,-0.000258
-0.2368056,-0.000182
-0.2366667,0.000169719
-0.2365278,0.000699753
-0.2363889,0.001819874
-0.23625,0.00241741
-0.2361111,0.002395506
-0.2359722,0.001243199
-0.2358333,5.4533E-05
-0.2356944,-0.00098
-0.2355556,-0.00101
-0.2354167,-0.000825
-0.2352778,-0.000472
-0.2351389,-0.000715
-0.235,-0.000744
-0.2348611,-0.000484
-0.2347222,0.000632102
-0.2345833,0.001461799
-0.2344444,0.00181287
-0.2343056,0.000980491
-0.2341667,2.23465E-05
-0.2340278,-0.000941
-0.2338889,-0.00106
-0.23375,-0.00106
-0.2336111,-0.000799
-0.2334722,-0.000936
-0.2333333,-0.000739
-0.2331944,-0.000408
-0.2330556,0.000696028
-0.2329167,0.00154897
-0.2327778,0.001970673
-0.2326389,0.001207287
-0.2325,0.000149453
-0.2323611,-0.000988
-0.2322222,-0.00137
-0.2320833,-0.00173
-0.2319444,-0.00184
-0.2318056,-0.00218
-0.2316667,-0.00182
-0.2315278,-0.00101
-0.2313889,0.000695283
-0.23125,0.002160067
-0.2311111,0.003307755
-0.2309722,0.003275866
-0.2308333,0.002775932
-0.2306944,0.001799608
-0.2305556,0.001131142
-0.2304167,8.26962E-05
-0.2302778,-0.00118
-0.2301389,-0.00297
-0.23,-0.00399
-0.2298611,-0.00401
-0.2297222,-0.00256
-0.2295833,-0.000838
-0.2294444,0.000945921
-0.2293056,0.001937444
-0.2291667,0.002824063
-0.2290278,0.003276462
-0.2288889,0.003762091
-0.22875,0.003287936
-0.2286111,0.002022678
-0.2284722,-0.000478
-0.2283333,-0.00284
-0.2281944,-0.00447
-0.2280556,-0.00439
-0.2279167,-0.00366
-0.2277778,-0.00252
-0.2276389,-0.0018
-0.2275,-0.000656
-0.2273611,0.000792886
-0.2272222,0.002854908
-0.2270833,0.004144455
-0.2269444,0.004460061
-0.2268056,0.003120298
-0.2266667,0.001325751
-0.2265278,-0.000512
-0.2263889,-0.00128
-0.22625,-0.00165
-0.2261111,-0.00177
-0.2259722,-0.00241
-0.2258333,-0.00268
-0.2256944,-0.00223
-0.2255556,-0.000397
-0.2254167,0.00150382
-0.2252778,0.002919728
-0.2251389,0.00278532
-0.225,0.002039219
-0.2248611,0.001004929
-0.2247222,0.000714505
-0.2245833,0.00045597
-0.2244444,0.000222618
-0.2243056,-0.00087
-0.2241667,-0.00192
-0.2240278,-0.00263
-0.2238889,-0.00191
-0.22375,-0.000607
-0.2236111,0.000799442
-0.2234722,0.000974084
-0.2233333,0.000499184
-0.2231944,-0.000322
-0.2230556,-0.000323
-0.2229167,-0.0000854
-0.2227778,0.000302488
-0.2226389,-0.000127
-0.2225,-0.000709
-0.2223611,-0.00134
-0.2222222,-0.000902
-0.2220833,3.66516E-05
-0.2219444,0.001374925
-0.2218056,0.001765484
-0.2216667,0.001446898
-0.2215278,0.000392491
-0.2213889,-0.000122
-0.22125,-0.000354
-0.2211111,-0.000105
-0.2209722,-0.000434
-0.2208333,-0.000927
-0.2206944,-0.00158
-0.2205556,-0.00137
-0.2204167,-0.000606
-0.2202778,0.000874544
-0.2201389,0.001831496
-0.22,0.00236764
-0.2198611,0.001958753
-0.2197222,0.001474465
-0.2195833,0.00079825
-0.2194444,0.000460888
-0.2193056,-0.000328
-0.2191667,-0.00122
-0.2190278,-0.00249
-0.2188889,-0.00311
-0.21875,-0.00317
-0.2186111,-0.00208
-0.2184722,-0.000729
-0.2183333,0.000862176
-0.2181944,0.00177666
-0.2180556,0.002426947
-0.2179167,0.002400125
-0.2177778,0.002332772
-0.2176389,0.001717205
-0.2175,0.000964547
-0.2173611,-0.000449
-0.2172222,-0.00182
-0.2170833,-0.00314
-0.2169444,-0.00343
-0.2168056,-0.00299
-0.2166667,-0.00154
-0.2165278,-0.000131
-0.2163889,0.001352573
-0.21625,0.002162004
-0.2161111,0.002895738
-0.2159722,0.003136242
-0.2158333,0.003357525
-0.2156944,0.002795602
-0.2155556,0.001693661
-0.2154167,-0.000304
-0.2152778,-0.00214
-0.2151389,-0.00352
-0.215,-0.00354
-0.2148611,-0.00293
-0.2147222,-0.00181
-0.2145833,-0.00104
-0.2144444,-0.0000458
-0.2143056,0.000945026
-0.2141667,0.002473439
-0.2140278,0.003576572
-0.2138889,0.004058326
-0.21375,0.002924497
-0.2136111,0.001022512
-0.2134722,-0.00133
-0.2133333,-0.00264
-0.2131944,-0.00322
-0.2130556,-0.00301
-0.2129167,-0.00309
-0.2127778,-0.00289
-0.2126389,-0.00238
-0.2125,-0.000592
-0.2123611,0.001613045
-0.2122222,0.003819162
-0.2120833,0.004492546
-0.2119444,0.003990377
-0.2118056,0.002409811
-0.2116667,0.0011827
-0.2115278,0.000226492
-0.2113889,-0.000217
-0.21125,-0.00131
-0.2111111,-0.00264
-0.2109722,-0.00394
-0.2108333,-0.00371
-0.2106944,-0.00226
-0.2105556,0.000198627
-0.2104167,0.001871283
-0.2102778,0.002697403
-0.2101389,0.002433653
-0.21,0.002347226
-0.2098611,0.002359445
-0.2097222,0.002616639
-0.2095833,0.001814956
-0.2094444,9.92365E-05
-0.2093056,-0.00239
-0.2091667,-0.00387
-0.2090278,-0.00408
-0.2088889,-0.00272
-0.20875,-0.00141
-0.2086111,-0.00048
-0.2084722,-0.00037
-0.2083333,0.000171656
-0.2081944,0.00106662
-0.2080556,0.002571637
-0.2079167,0.003164107
-0.2077778,0.002706195
-0.2076389,0.000872309
-0.2075,-0.000751
-0.2073611,-0.00166
-0.2072222,-0.0012
-0.2070833,-0.000736
-0.2069444,-0.00053
-0.2068056,-0.00118
-0.2066667,-0.00139
-0.2065278,-0.000974
-0.2063889,0.000576372
-0.20625,0.0018008
-0.2061111,0.002338732
-0.2059722,0.001499946
-0.2058333,0.000513191
-0.2056944,-0.000223
-0.2055556,0.000135297
-0.2054167,0.000516916
-0.2052778,0.00059321
-0.2051389,-0.000351
-0.205,-0.00121
-0.2048611,-0.00157
-0.2047222,-0.000735
-0.2045833,0.000198478
-0.2044444,0.000836397
-0.2043056,0.000277305
-0.2041667,-0.000531
-0.2040278,-0.00126
-0.2038889,-0.000931
-0.20375,-0.000323
-0.2036111,0.000369991
-0.2034722,0.000138129
-0.2033333,-0.000227
-0.2031944,-0.000507
-0.2030556,0.000230069
-0.2029167,0.00107571
-0.2027778,0.001773382
-0.2026389,0.00122636
-0.2025,0.000252569
-0.2023611,-0.000964
-0.2022222,-0.00126
-0.2020833,-0.00113
-0.2019444,-0.00051
-0.2018056,-0.000447
-0.2016667,-0.000433
-0.2015278,-0.000562
-0.2013889,0.00015452
-0.20125,0.001169587
-0.2011111,0.002345885
-0.2009722,0.002448107
-0.2008333,0.00193506
-0.2006944,0.000720019
-0.2005556,-0.0000884
-0.2004167,-0.000706
-0.2002778,-0.000832
-0.2001389,-0.00131
-0.2,-0.00176
-0.1998611,-0.0024
-0.1997222,-0.00221
-0.1995833,-0.00148
-0.1994444,3.87378E-05
-0.1993056,0.001163626
-0.1991667,0.001914049
-0.1990278,0.001760269
-0.1988889,0.001525576
-0.19875,0.001034433
-0.1986111,0.000839526
-0.1984722,0.000178511
-0.1983333,-0.000556
-0.1981944,-0.00177
-0.1980556,-0.00249
-0.1979167,-0.00273
-0.1977778,-0.00182
-0.1976389,-0.000643
-0.1975,0.0007154
-0.1973611,0.001321579
-0.1972222,0.001768018
-0.1970833,0.00180229
-0.1969444,0.002146358
-0.1968056,0.002117003
-0.1966667,0.001945788
-0.1965278,0.000881548
-0.1963889,-0.000308
-0.19625,-0.00162
-0.1961111,-0.00198
-0.1959722,-0.00183
-0.1958333,-0.00108
-0.1956944,-0.00076
-0.1955556,-0.00047
-0.1954167,-0.000447
-0.1952778,0.000207419
-0.1951389,0.000974829
-0.195,0.001952643
-0.1948611,0.002053524
-0.1947222,0.001580859
-0.1945833,0.000360305
-0.1944444,-0.000566
-0.1943056,-0.00118
-0.1941667,-0.00106
-0.1940278,-0.00122
-0.1938889,-0.00146
-0.19375,-0.00205
-0.1936111,-0.00187
-0.1934722,-0.00116
-0.1933333,0.000353748
-0.1931944,0.001390571
-0.1930556,0.001946682
-0.1929167,0.00152796
-0.1927778,0.001101489
-0.1926389,0.000725234
-0.1925,0.001039947
-0.1923611,0.001008803
-0.1922222,0.000671292
-0.1920833,-0.000538
-0.1919444,-0.00145
-0.1918056,-0.00187
-0.1916667,-0.00114
-0.1915278,-0.000354
-0.1913889,0.000313664
-0.19125,0.000165845
-0.1911111,6.91362E-05
-0.1909722,6.43678E-05
-0.1908333,0.000885422
-0.1906944,0.001588012
-0.1905556,0.001977528
-0.1904167,0.001138145
-0.1902778,-0.0000401
-0.1901389,-0.0012
-0.19,-0.00128
-0.1898611,-0.000983
-0.1897222,-0.000496
-0.1895833,-0.000805
-0.1894444,-0.00115
-0.1893056,-0.0014
-0.1891667,-0.000666
-0.1890278,0.000278796
-0.1888889,0.001298035
-0.18875,0.001252288
-0.1886111,0.000700349
-0.1884722,-0.000216
-0.1883333,-0.000255
-0.1881944,0.000115479
-0.1880556,0.00086754
-0.1879167,0.000775004
-0.1877778,0.000267322
-0.1876389,-0.000646
-0.1875,-0.000698
-0.1873611,-0.000314
-0.1872222,0.000525857
-0.1870833,0.000646854
-0.1869444,0.000356431
-0.1868056,-0.000501
-0.1866667,-0.000663
-0.1865278,-0.000311
-0.1863889,0.000690515
-0.18625,0.001107449
-0.1861111,0.001006568
-0.1859722,0.000108028
-0.1858333,-0.000326
-0.1856944,-0.000368
-0.1855556,0.000303829
-0.1854167,0.000504101
-0.1852778,0.000298316
-0.1851389,-0.000748
-0.185,-0.00144
-0.1848611,-0.00172
-0.1847222,-0.00105
-0.1845833,-0.000477
-0.1844444,-0.0000338
-0.1843056,-0.000329
-0.1841667,-0.00039
-0.1840278,-0.000174
-0.1838889,0.000862623
-0.18375,0.001613492
-0.1836111,0.001913304
-0.1834722,0.001076902
-0.1833333,8.94017E-05
-0.1831944,-0.000862
-0.1830556,-0.000895
-0.1829167,-0.000774
-0.1827778,-0.000475
-0.1826389,-0.000785
-0.1825,-0.000881
-0.1823611,-0.000812
-0.1822222,0.000145877
-0.1820833,0.001122499
-0.1819444,0.001998986
-0.1818056,0.001827324
-0.1816667,0.001284624
-0.1815278,0.000405902
-0.1813889,0.000174189
-0.18125,2.74129E-05
-0.1811111,6.7795E-05
-0.1809722,-0.00055
-0.1808333,-0.00113
-0.1806944,-0.00174
-0.1805556,-0.0015
-0.1804167,-0.000991
-0.1802778,-0.000143
-0.1801389,0.000117416
-0.18,0.000247205
-0.1798611,2.11544E-05
-0.1797222,0.000299657
-0.1795833,0.000565494
-0.1794444,0.000952179
-0.1793056,0.000625248
-0.1791667,0.000114883
-0.1790278,-0.000634
-0.1788889,-0.000721
-0.17875,-0.000616
-0.1786111,-0.000168
-0.1784722,-0.000173
-0.1783333,-0.000172
-0.1781944,-0.000473
-0.1780556,-0.00027
-0.1779167,-0.0000113
-0.1777778,0.000533009
-0.1776389,0.000520641
-0.1775,0.000479067
-0.1773611,0.000200862
-0.1772222,0.000540162
-0.1770833,0.000912244
-0.1769444,0.001468653
-0.1768056,0.001285071
-0.1766667,0.000845934
-0.1765278,-0.0000528
-0.1763889,-0.000503
-0.17625,-0.000954
-0.1761111,-0.00102
-0.1759722,-0.00143
-0.1758333,-0.00161
-0.1756944,-0.00175
-0.1755556,-0.00103
-0.1754167,-0.0000329
-0.1752778,0.001246775
-0.1751389,0.00171944
-0.175,0.001759971
-0.1748611,0.001216526
-0.1747222,0.000984962
-0.1745833,0.000612731
-0.1744444,0.00035196
-0.1743056,-0.000606
-0.1741667,-0.00157
-0.1740278,-0.00258
-0.1738889,-0.00258
-0.17375,-0.002
-0.1736111,-0.000656
-0.1734722,0.000235135
-0.1733333,0.000935043
-0.1731944,0.001165117
-0.1730556,0.001867557
-0.1729167,0.002542729
-0.1727778,0.003166045
-0.1726389,0.002543325
-0.1725,0.001197005
-0.1723611,-0.000717
-0.1722222,-0.00188
-0.1720833,-0.00237
-0.1719444,-0.00193
-0.1718056,-0.00164
-0.1716667,-0.00132
-0.1715278,-0.00128
-0.1713889,-0.000455
-0.17125,0.000810916
-0.1711111,0.002453918
-0.1709722,0.002992446
-0.1708333,0.002455706
-0.1706944,0.000773961
-0.1705556,-0.000496
-0.1704167,-0.00123
-0.1702778,-0.00106
-0.1701389,-0.00116
-0.17,-0.00143
-0.1698611,-0.00223
-0.1697222,-0.0022
-0.1695833,-0.00132
-0.1694444,0.000389958
-0.1693056,0.001752222
-0.1691667,0.002230401
-0.1690278,0.001322026
-0.1688889,0.000485177
-0.16875,8.31432E-05
-0.1686111,0.000622565
-0.1684722,0.000753696
-0.1683333,0.000388915
-0.1681944,-0.000867
-0.1680556,-0.0017
-0.1679167,-0.00174
-0.1677778,-0.000429
-0.1676389,0.000972445
-0.1675,0.001920903
-0.1673611,0.001462097
-0.1672222,0.000695432
-0.1670833,4.42512E-05
-0.1669444,0.000433172
-0.1668056,0.000782157
-0.1666667,0.000721211
-0.1665278,-0.000554
-0.1663889,-0.00176
-0.16625,-0.00238
-0.1661111,-0.00144
-0.1659722,-0.000105
-0.1658333,0.001179273
-0.1656944,0.001199538
-0.1655556,0.000625397
-0.1654167,-0.000214
-0.1652778,-0.000111
-0.1651389,0.000286097
-0.165,0.000727917
-0.1648611,3.72477E-05
-0.1647222,-0.00104
-0.1645833,-0.00203
-0.1644444,-0.00166
-0.1643056,-0.000671
-0.1641667,0.000606025
-0.1640278,0.000872756
-0.1638889,0.000627185
-0.16375,-0.000034
-0.1636111,5.69172E-05
-0.1634722,0.000535394
-0.1633333,0.001409198
-0.1631944,0.001435424
-0.1630556,0.000900174
-0.1629167,-0.000205
-0.1627778,-0.00055
-0.1626389,-0.000306
-0.1625,0.000532562
-0.1623611,0.000657136
-0.1622222,0.000327671
-0.1620833,-0.000538
-0.1619444,-0.000767
-0.1618056,-0.000688
-0.1616667,-0.0000316
-0.1615278,0.000207121
-0.1613889,0.000240053
-0.16125,-0.000348
-0.1611111,-0.000548
-0.1609722,-0.000414
-0.1608333,0.000480408
-0.1606944,0.001072878
-0.1605556,0.001312638
-0.1604167,0.000680084
-0.1602778,0.000117565
-0.1601389,-0.000534
-0.16,-0.000737
-0.1598611,-0.00121
-0.1597222,-0.00149
-0.1595833,-0.00195
-0.1594444,-0.00189
-0.1593056,-0.00159
-0.1591667,-0.000494
-0.1590278,0.000703479
-0.1588889,0.001993025
-0.15875,0.002545262
-0.1586111,0.002750898
-0.1584722,0.002324427
-0.1583333,0.001860852
-0.1581944,0.000863219
-0.1580556,-0.0000651
-0.1579167,-0.0012
-0.1577778,-0.00178
-0.1576389,-0.00229
-0.1575,-0.00219
-0.1573611,-0.00194
-0.1572222,-0.000966
-0.1570833,6.46658E-05
-0.1569444,0.001333351
-0.1568056,0.001994813
-0.1566667,0.002471501
-0.1565278,0.002224589
-0.1563889,0.001876647
-0.15625,0.001078243
-0.1561111,0.000518257
-0.1559722,-0.000403
-0.1558333,-0.0013
-0.1556944,-0.00251
-0.1555556,-0.00311
-0.1554167,-0.00311
-0.1552778,-0.00199
-0.1551389,-0.000806
-0.155,0.000368948
-0.1548611,0.000807191
-0.1547222,0.001195962
-0.1545833,0.0013183
-0.1544444,0.001851762
-0.1543056,0.00204056
-0.1541667,0.001931036
-0.1540278,0.000802571
-0.1538889,-0.000422
-0.15375,-0.00148
-0.1536111,-0.00132
-0.1534722,-0.000781
-0.1533333,-0.000066
-0.1531944,-0.000282
-0.1530556,-0.000711
-0.1529167,-0.00116
-0.1527778,-0.00054
-0.1526389,0.000450755
-0.1525,0.001645679
-0.1523611,0.001761312
-0.1522222,0.001215184
-0.1520833,0.000262106
-0.1519444,0.000217105
-0.1518056,0.000658775
-0.1516667,0.001325453
-0.1515278,0.000827456
-0.1513889,-0.000429
-0.15125,-0.00208
-0.1511111,-0.00258
-0.1509722,-0.00211
-0.1508333,-0.000737
-0.1506944,-0.0000945
-0.1505556,-0.000184
-0.1504167,-0.00103
-0.1502778,-0.00105
-0.1501389,-0.000146
-0.15,0.001605893
-0.1498611,0.002378816
-0.1497222,0.00204354
-0.1495833,0.000541354
-0.1494444,-0.000435
-0.1493056,-0.000568
-0.1491667,0.000354195
-0.1490278,0.000717933
-0.1488889,0.000234688
-0.14875,-0.00143
-0.1486111,-0.00252
-0.1484722,-0.00239
-0.1483333,-0.000608
-0.1481944,0.001102681
-0.1480556,0.001956517
-0.1479167,0.001252586
-0.1477778,0.000533009
-0.1476389,0.000428254
-0.1475,0.001510376
-0.1473611,0.002276594
-0.1472222,0.002145762
-0.1470833,0.000364328
-0.1469444,-0.0016
-0.1468056,-0.00285
-0.1466667,-0.00231
-0.1465278,-0.00116
-0.1463889,-0.000244
-0.14625,-0.000818
-0.1461111,-0.00164
-0.1459722,-0.00189
-0.1458333,-0.000407
-0.1456944,0.001493538
-0.1455556,0.002908553
-0.1454167,0.002485956
-0.1452778,0.00118121
-0.1451389,-0.000329
-0.145,-0.000644
-0.1448611,-0.000366
-0.1447222,4.46982E-05
-0.1445833,-0.000793
-0.1444444,-0.00212
-0.1443056,-0.00321
-0.1441667,-0.00244
-0.1440278,-0.000426
-0.1438889,0.001985724
-0.14375,0.002953107
-0.1436111,0.002750302
-0.1434722,0.001658494
-0.1433333,0.001211012
-0.1431944,0.001180763
-0.1430556,0.001427526
-0.1429167,0.000611687
-0.1427778,-0.000935
-0.1426389,-0.00288
-0.1425,-0.00345
-0.1423611,-0.00264
-0.1422222,-0.000621
-0.1420833,0.000796909
-0.1419444,0.001386548
-0.1418056,0.000945026
-0.1416667,0.000858153
-0.1415278,0.001116688
-0.1413889,0.001875008
-0.14125,0.001708711
-0.1411111,0.000654156
-0.1409722,-0.00142
-0.1408333,-0.00293
-0.1406944,-0.00352
-0.1405556,-0.00255
-0.1404167,-0.00136
-0.1402778,-0.000274
-0.1401389,2.69659E-05
-0.14,0.000548805
-0.1398611,0.001309807
-0.1397222,0.002684737
-0.1395833,0.003371979
-0.1394444,0.003105099
-0.1393056,0.001351232
-0.1391667,-0.000618
-0.1390278,-0.00227
-0.1388889,-0.0026
-0.13875,-0.00232
-0.1386111,-0.00157
-0.1384722,-0.00119
-0.1383333,-0.000545
-0.1381944,0.000286693
-0.1380556,0.001883502
-0.1379167,0.0031501
-0.1377778,0.003833617
-0.1376389,0.002992744
-0.1375,0.001448239
-0.1373611,-0.000481
-0.1372222,-0.00155
-0.1370833,-0.0022
-0.1369444,-0.00232
-0.1368056,-0.00268
-0.1366667,-0.00268
-0.1365278,-0.00241
-0.1363889,-0.00111
-0.13625,0.000445242
-0.1361111,0.002109701
-0.1359722,0.002675647
-0.1358333,0.002543772
-0.1356944,0.001601721
-0.1355556,0.000933255
-0.1354167,0.000190432
-0.1352778,-0.000287
-0.1351389,-0.0013
-0.135,-0.00212
-0.1348611,-0.00277
-0.1347222,-0.00225
-0.1345833,-0.00115
-0.1344444,0.000481898
-0.1343056,0.001455838
-0.1341667,0.002047414
-0.1340278,0.001851315
-0.1338889,0.001782323
-0.13375,0.001502926
-0.1336111,0.001347209
-0.1334722,0.000491435
-0.1333333,-0.00047
-0.1331944,-0.0015
-0.1330556,-0.00148
-0.1329167,-0.000912
-0.1327778,0.000206227
-0.1326389,0.000660265
-0.1325,0.000757868
-0.1323611,0.0002329
-0.1322222,3.00951E-05
-0.1320833,-0.000173
-0.1319444,-0.0000781
-0.1318056,-0.000538
-0.1316667,-0.00111
-0.1315278,-0.00182
-0.1313889,-0.00154
-0.13125,-0.00063
-0.1311111,0.000863368
-0.1309722,0.00160783
-0.1308333,0.001765186
-0.1306944,0.001135463
-0.1305556,0.000796015
-0.1304167,0.000419462
-0.1302778,0.000284905
-0.1301389,-0.000585
-0.13,-0.00174
-0.1298611,-0.00311
-0.1297222,-0.00333
-0.1295833,-0.00248
-0.1294444,-0.000503
-0.1293056,0.001195664
-0.1291667,0.002501602
-0.1290278,0.002968902
-0.1288889,0.003553028
-0.12875,0.003885473
-0.1286111,0.004019583
-0.1284722,0.0027506
-0.1283333,0.000472213
-0.1281944,-0.00261
-0.1280556,-0.00481
-0.1279167,-0.00573
-0.1277778,-0.0049
-0.1276389,-0.00355
-0.1275,-0.00185
-0.1273611,-0.000384
-0.1272222,0.001712436
-0.1270833,0.003902907
-0.1269444,0.006031538
-0.1268056,0.006455774
-0.1266667,0.005175317
-0.1265278,0.0021325
-0.1263889,-0.000967
-0.12625,-0.00356
-0.1261111,-0.00481
-0.1259722,-0.00554
-0.1258333,-0.00566
-0.1256944,-0.00555
-0.1255556,-0.00399
-0.1254167,-0.00126
-0.1252778,0.002483124
-0.1251389,0.005373056
-0.125,0.006902958
-0.1248611,0.006407494
-0.1247222,0.005161161
-0.1245833,0.003336514
-0.1244444,0.001734341
-0.1243056,-0.000392
-0.1241667,-0.00275
-0.1240278,-0.00536
-0.1238889,-0.00666
-0.12375,-0.00632
-0.1236111,-0.00387
-0.1234722,-0.00101
-0.1233333,0.001602764
-0.1231944,0.002963538
-0.1230556,0.004015709
-0.1229167,0.004577036
-0.1227778,0.005026455
-0.1226389,0.004263664
-0.1225,0.002498324
-0.1223611,-0.000402
-0.1222222,-0.00293
-0.1220833,-0.0046
-0.1219444,-0.00453
-0.1218056,-0.00381
-0.1216667,-0.00281
-0.1215278,-0.00237
-0.1213889,-0.00154
-0.12125,-0.000311
-0.1211111,0.001662517
-0.1209722,0.002945507
-0.1208333,0.003409977
-0.1206944,0.00258028
-0.1205556,0.001686061
-0.1204167,0.000847275
-0.1202778,0.000793482
-0.1201389,0.000550146
-0.12,0.000152732
-0.1198611,-0.00107
-0.1197222,-0.002
-0.1195833,-0.0024
-0.1194444,-0.00158
-0.1193056,-0.000725
-0.1191667,-0.0000484
-0.1190278,-0.00022
-0.1188889,-0.000118
-0.11875,0.000312174
-0.1186111,0.001538838
-0.1184722,0.002345587
-0.1183333,0.00267073
-0.1181944,0.001946086
-0.1180556,0.001168693
-0.1179167,0.000371928
-0.1177778,0.000206078
-0.1176389,-0.000204
-0.1175,-0.000872
-0.1173611,-0.00234
-0.1172222,-0.00341
-0.1170833,-0.00376
-0.1169444,-0.0027
-0.1168056,-0.00142
-0.1166667,-0.000126
-0.1165278,0.000432725
-0.1163889,0.001174057
-0.11625,0.001960392
-0.1161111,0.003075297
-0.1159722,0.003381217
-0.1158333,0.002906466
-0.1156944,0.00116914
-0.1155556,-0.000622
-0.1154167,-0.00208
-0.1152778,-0.00237
-0.1151389,-0.00236
-0.115,-0.00214
-0.1148611,-0.00236
-0.1147222,-0.00203
-0.1145833,-0.00109
-0.1144444,0.00086158
-0.1143056,0.002415175
-0.1141667,0.003353352
-0.1140278,0.002981717
-0.1138889,0.002391631
-0.11375,0.001747305
-0.1136111,0.0016576
-0.1134722,0.001158709
-0.1133333,0.000226492
-0.1131944,-0.00155
-0.1130556,-0.00297
-0.1129167,-0.00372
-0.1127778,-0.00302
-0.1126389,-0.00195
-0.1125,-0.000843
-0.1123611,-0.000519
-0.1122222,2.39856E-05
-0.1120833,0.000776047
-0.1119444,0.002268101
-0.1118056,0.003170217
-0.1116667,0.003212238
-0.1115278,0.001801694
-0.1113889,0.000227536
-0.11125,-0.00113
-0.1111111,-0.0014
-0.1109722,-0.00151
-0.1108333,-0.0016
-0.1106944,-0.00233
-0.1105556,-0.00263
-0.1104167,-0.0023
-0.1102778,-0.000605
-0.1101389,0.001177634
-0.11,0.002534086
-0.1098611,0.00250041
-0.1097222,0.002075876
-0.1095833,0.001637334
-0.1094444,0.001964713
-0.1093056,0.001941616
-0.1091667,0.001313085
-0.1090278,-0.000513
-0.1088889,-0.00223
-0.10875,-0.00334
-0.1086111,-0.00285
-0.1084722,-0.00175
-0.1083333,-0.00045
-0.1081944,-0.000096
-0.1080556,0.000112499
-0.1079167,0.000365222
-0.1077778,0.001548374
-0.1076389,0.002534533
-0.1075,0.002769376
-0.1073611,0.001347954
-0.1072222,-0.000482
-0.1070833,-0.00202
-0.1069444,-0.00212
-0.1068056,-0.00169
-0.1066667,-0.00105
-0.1065278,-0.00122
-0.1063889,-0.00139
-0.10625,-0.00133
-0.1061111,-0.0000991
-0.1059722,0.001404131
-0.1058333,0.002660448
-0.1056944,0.00235721
-0.1055556,0.001306678
-0.1054167,6.92852E-05
-0.1052778,-0.00000164
-0.1051389,0.000291014
-0.105,0.00053435
-0.1048611,-0.000307
-0.1047222,-0.00133
-0.1045833,-0.00204
-0.1044444,-0.00139
-0.1043056,-0.000135
-0.1041667,0.001341099
-0.1040278,0.001648957
-0.1038889,0.001234109
-0.10375,0.000365073
-0.1036111,0.000375057
-0.1034722,0.00076964
-0.1033333,0.00121131
-0.1031944,0.000419612
-0.1030556,-0.000909
-0.1029167,-0.00222
-0.1027778,-0.00215
-0.1026389,-0.00131
-0.1025,-0.0000358
-0.1023611,0.000254805
-0.1022222,2.22994E-06
-0.1020833,-0.000756
-0.1019444,-0.000621
-0.1018056,0.000041569
-0.1016667,0.001194174
-0.1015278,0.001287902
-0.1013889,0.000638063
-0.10125,-0.00058
-0.1011111,-0.000844
-0.1009722,-0.000365
-0.1008333,0.00065952
-0.1006944,0.000806297
-0.1005556,0.000304724
-0.1004167,-0.000738
-0.1002778,-0.000962
-0.1001389,-0.000514
-0.1,0.000717337
-0.0998611,0.001331712
-0.0997222,0.001275832
-0.0995833,0.000247652
-0.0994444,-0.000299
-0.0993056,-0.000239
-0.0991667,0.000672484
-0.0990278,0.001041139
-0.0988889,0.000826264
-0.09875,-0.000228
-0.0986111,-0.000738
-0.0984722,-0.00076
-0.0983333,6.06425E-05
-0.0981944,0.000540013
-0.0980556,0.000580544
-0.0979167,-0.000471
-0.0977778,-0.00139
-0.0976389,-0.00185
-0.0975,-0.00119
-0.0973611,-0.000393
-0.0972222,0.00022083
-0.0970833,-0.0000526
-0.0969444,-0.000215
-0.0968056,-0.000195
-0.0966667,0.000629271
-0.0965278,0.001273001
-0.0963889,0.001717354
-0.09625,0.001120562
-0.0961111,0.000229771
-0.0959722,-0.000841
-0.0958333,-0.001
-0.0956944,-0.000846
-0.0955556,-0.000392
-0.0954167,-0.000603
-0.0952778,-0.000872
-0.0951389,-0.00113
-0.095,-0.000493
-0.0948611,0.00043645
-0.0947222,0.001685763
-0.0945833,0.00226676
-0.0944444,0.002444381
-0.0943056,0.001820321
-0.0941667,0.001295502
-0.0940278,0.000630314
-0.0938889,0.000329012
-0.09375,-0.000501
-0.0936111,-0.00148
-0.0934722,-0.00272
-0.0933333,-0.00316
-0.0931944,-0.00297
-0.0930556,-0.0018
-0.0929167,-0.000588
-0.0927778,0.000722701
-0.0926389,0.001352573
-0.0925,0.00177964
-0.0923611,0.00175863
-0.0922222,0.002014185
-0.0920833,0.001822705
-0.0919444,0.001373882
-0.0918056,5.33409E-05
-0.0916667,-0.00117
-0.0915278,-0.00224
-0.0913889,-0.00236
-0.09125,-0.00217
-0.0911111,-0.00143
-0.0909722,-0.000944
-0.0908333,-0.000263
-0.0906944,0.000164355
-0.0905556,0.001083309
-0.0904167,0.001935656
-0.0902778,0.00281855
-0.0901389,0.002723629
-0.09,0.002100761
-0.0898611,0.000917161
-0.0897222,0.00016808
-0.0895833,-0.000493
-0.0894444,-0.000683
-0.0893056,-0.00112
-0.0891667,-0.00124
-0.0890278,-0.00146
-0.0888889,-0.00118
-0.08875,-0.000814
-0.0886111,-0.0000125
-0.0884722,0.00023439
-0.0883333,0.000314409
-0.0881944,-0.000153
-0.0880556,-0.000202
-0.0879167,-0.00016
-0.0877778,0.000306363
-0.0876389,0.000348384
-0.0875,0.00054493
-0.0873611,0.000521386
-0.0872222,0.000780667
-0.0870833,0.000586057
-0.0869444,0.000412757
-0.0868056,-0.000346
-0.0866667,-0.00102
-0.0865278,-0.00185
-0.0863889,-0.00203
-0.08625,-0.00192
-0.0861111,-0.00119
-0.0859722,-0.000725
-0.0858333,7.19674E-05
-0.0856944,0.000966633
-0.0855556,0.002475227
-0.0854167,0.003542299
-0.0852778,0.004025842
-0.0851389,0.003215516
-0.085,0.002024169
-0.0848611,0.000535096
-0.0847222,-0.000457
-0.0845833,-0.00157
-0.0844444,-0.00248
-0.0843056,-0.00373
-0.0841667,-0.00439
-0.0840278,-0.0042
-0.0838889,-0.00223
-0.08375,0.000366712
-0.0836111,0.002801264
-0.0834722,0.003671492
-0.0833333,0.003735269
-0.0831944,0.003330851
-0.0830556,0.00335663
-0.0829167,0.002828533
-0.0827778,0.001456285
-0.0826389,-0.0014
-0.0825,-0.00439
-0.0823611,-0.00656
-0.0822222,-0.00629
-0.0820833,-0.00435
-0.0819444,-0.00158
-0.0818056,5.60231E-05
-0.0816667,0.000943983
-0.0815278,0.001644189
-0.0813889,0.003535593
-0.08125,0.005593146
-0.0811111,0.006675566
-0.0809722,0.005046422
-0.0808333,0.001759077
-0.0806944,-0.00186
-0.0805556,-0.00359
-0.0804167,-0.00357
-0.0802778,-0.00253
-0.0801389,-0.00247
-0.08,-0.0031
-0.0798611,-0.00366
-0.0797222,-0.00204
-0.0795833,0.001257504
-0.0794444,0.004940177
-0.0793056,0.006154025
-0.0791667,0.004781032
-0.0790278,0.001830006
-0.0788889,-0.0000142
-0.07875,-0.000415
-0.0786111,9.95345E-05
-0.0784722,-0.000735
-0.0783333,-0.00288
-0.0781944,-0.00551
-0.0780556,-0.00595
-0.0779167,-0.00377
-0.0777778,0.000241543
-0.0776389,0.002958471
-0.0775,0.003334279
-0.0773611,0.001655365
-0.0772222,0.000597084
-0.0770833,0.001043523
-0.0769444,0.002796794
-0.0768056,0.003187353
-0.0766667,0.001486386
-0.0765278,-0.0019
-0.0763889,-0.00411
-0.07625,-0.00393
-0.0761111,-0.00136
-0.0759722,0.000826115
-0.0758333,0.001355106
-0.0756944,-0.0000812
-0.0755556,-0.00107
-0.0754167,-0.000381
-0.0752778,0.002238596
-0.0751389,0.004175151
-0.075,0.004047299
-0.0748611,0.001342142
-0.0747222,-0.00143
-0.0745833,-0.00263
-0.0744444,-0.00147
-0.0743056,-0.000189
-0.0741667,-0.0000854
-0.0740278,-0.00184
-0.0738889,-0.00326
-0.07375,-0.00303
-0.0736111,-0.000534
-0.0734722,0.002068723
-0.0733333,0.003329063
-0.0731944,0.002138461
-0.0730556,0.000297422
-0.0729167,-0.000853
-0.0727778,-0.000032
-0.0726389,0.001060063
-0.0725,0.001162583
-0.0723611,-0.000791
-0.0722222,-0.00293
-0.0720833,-0.00382
-0.0719444,-0.00233
-0.0718056,-0.000195
-0.0716667,0.001352126
-0.0715278,0.001157517
-0.0713889,0.000610346
-0.07125,0.000527198
-0.0711111,0.00195756
-0.0709722,0.003459597
-0.0708333,0.004035527
-0.0706944,0.002368236
-0.0705556,-0.000219
-0.0704167,-0.00242
-0.0702778,-0.00264
-0.0701389,-0.00205
-0.07,-0.00153
-0.0698611,-0.00219
-0.0697222,-0.00263
-0.0695833,-0.00213
-0.0694444,8.25472E-05
-0.0693056,0.002437974
-0.0691667,0.004109884
-0.0690278,0.003778482
-0.0688889,0.002507562
-0.06875,0.00086456
-0.0686111,0.000307108
-0.0684722,-0.00000686
-0.0683333,-0.000589
-0.0681944,-0.00253
-0.0680556,-0.00449
-0.0679167,-0.0054
-0.0677778,-0.00405
-0.0676389,-0.00186
-0.0675,0.000256295
-0.0673611,0.001166458
-0.0672222,0.001847143
-0.0670833,0.002544815
-0.0669444,0.003927345
-0.0668056,0.004837806
-0.0666667,0.004799957
-0.0665278,0.002792323
-0.0663889,-0.0000273
-0.06625,-0.00275
-0.0661111,-0.00372
-0.0659722,-0.00367
-0.0658333,-0.0032
-0.0656944,-0.00344
-0.0655556,-0.00321
-0.0654167,-0.002
-0.0652778,0.000730748
-0.0651389,0.003339941
-0.065,0.005060578
-0.0648611,0.004804576
-0.0647222,0.00357687
-0.0645833,0.001866663
-0.0644444,0.000934
-0.0643056,0.000150646
-0.0641667,-0.000657
-0.0640278,-0.00257
-0.0638889,-0.00448
-0.06375,-0.00548
-0.0636111,-0.00433
-0.0634722,-0.00232
-0.0633333,-0.000289
-0.0631944,0.000425572
-0.0630556,0.000835652
-0.0629167,0.001290435
-0.0627778,0.00262707
-0.0626389,0.003681625
-0.0625,0.004103924
-0.0623611,0.002895141
-0.0622222,0.000906283
-0.0620833,-0.00117
-0.0619444,-0.00184
-0.0618056,-0.0017
-0.0616667,-0.00129
-0.0615278,-0.0019
-0.0613889,-0.0026
-0.06125,-0.00279
-0.0611111,-0.00143
-0.0609722,0.000317837
-0.0608333,0.001839096
-0.0606944,0.002010609
-0.0605556,0.001750583
-0.0604167,0.001294012
-0.0602778,0.001748795
-0.0601389,0.002380902
-0.06,0.002851034
-0.0598611,0.00178873
-0.0597222,-0.0000286
-0.0595833,-0.0021
-0.0594444,-0.00292
-0.0593056,-0.00303
-0.0591667,-0.00281
-0.0590278,-0.0033
-0.0588889,-0.00355
-0.05875,-0.00315
-0.0586111,-0.0012
-0.0584722,0.00124305
-0.0583333,0.003641094
-0.0581944,0.004582698
-0.0580556,0.004441137
-0.0579167,0.003358121
-0.0577778,0.002570296
-0.0576389,0.001617665
-0.0575,0.000520194
-0.0573611,-0.00174
-0.0572222,-0.00406
-0.0570833,-0.00576
-0.0569444,-0.00545
-0.0568056,-0.00395
-0.0566667,-0.00163
-0.0565278,0.000163014
-0.0563889,0.001863534
-0.05625,0.003247554
-0.0561111,0.005037034
-0.0559722,0.006235833
-0.0558333,0.006517763
-0.0556944,0.004750634
-0.0555556,0.001794393
-0.0554167,-0.00172
-0.0552778,-0.00407
-0.0551389,-0.00542
-0.055,-0.00573
-0.0548611,-0.00588
-0.0547222,-0.00516
-0.0545833,-0.00354
-0.0544444,-0.000361
-0.0543056,0.003007496
-0.0541667,0.005824859
-0.0540278,0.006637121
-0.0538889,0.005915458
-0.05375,0.003833319
-0.0536111,0.001850868
-0.0534722,-0.00019
-0.0533333,-0.00203
-0.0531944,-0.00438
-0.0530556,-0.00621
-0.0529167,-0.00698
-0.0527778,-0.00549
-0.0526389,-0.00273
-0.0525,0.000542844
-0.0523611,0.002734507
-0.0522222,0.004177386
-0.0520833,0.00474065
-0.0519444,0.005339677
-0.0518056,0.005255932
-0.0516667,0.0044316
-0.0515278,0.001931632
-0.0513889,-0.00118
-0.05125,-0.00419
-0.0511111,-0.00538
-0.0509722,-0.0051
-0.0508333,-0.00362
-0.0506944,-0.00244
-0.0505556,-0.00115
-0.0504167,0.000184322
-0.0502778,0.002408321
-0.0501389,0.004417742
-0.05,0.005630697
-0.0498611,0.00475883
-0.0497222,0.002547348
-0.0495833,-0.000392
-0.0494444,-0.00231
-0.0493056,-0.00329
-0.0491667,-0.00326
-0.0490278,-0.0035
-0.0488889,-0.00353
-0.04875,-0.00322
-0.0486111,-0.00147
-0.0484722,0.000911499
-0.0483333,0.003242339
-0.0481944,0.003920788
-0.0480556,0.003318334
-0.0479167,0.001772041
-0.0477778,0.000752801
-0.0476389,0.000144238
-0.0475,-0.0000532
-0.0473611,-0.000938
-0.0472222,-0.002
-0.0470833,-0.00299
-0.0469444,-0.00254
-0.0468056,-0.00105
-0.0466667,0.001131291
-0.0465278,0.002283449
-0.0463889,0.002533937
-0.04625,0.001843566
-0.0461111,0.001531387
-0.0459722,0.001284475
-0.0458333,0.001115794
-0.0456944,2.30916E-05
-0.0455556,-0.00146
-0.0454167,-0.00301
-0.0452778,-0.00318
-0.0451389,-0.00229
-0.045,-0.000398
-0.0448611,0.000960226
-0.0447222,0.001730914
-0.0445833,0.00157624
-0.0444444,0.001572514
-0.0443056,0.00142082
-0.0441667,0.001222188
-0.0440278,1.50449E-05
-0.0438889,-0.00151
-0.04375,-0.00315
-0.0436111,-0.00351
-0.0434722,-0.00289
-0.0433333,-0.00124
-0.0431944,0.000130231
-0.0430556,0.001336629
-0.0429167,0.001915241
-0.0427778,0.002678926
-0.0426389,0.003102566
-0.0425,0.00323161
-0.0423611,0.002135778
-0.0422222,0.000485624
-0.0420833,-0.00155
-0.0419444,-0.00257
-0.0418056,-0.0029
-0.0416667,-0.00236
-0.0415278,-0.00191
-0.0413889,-0.00112
-0.04125,-0.000266
-0.0411111,0.001379246
-0.0409722,0.002924348
-0.0408333,0.0041829
-0.0406944,0.003967578
-0.0405556,0.002744938
-0.0404167,0.000708545
-0.0402778,-0.000891
-0.0401389,-0.00218
-0.04,-0.00289
-0.0398611,-0.00376
-0.0397222,-0.00401
-0.0395833,-0.00364
-0.0394444,-0.00177
-0.0393056,0.000548358
-0.0391667,0.002867574
-0.0390278,0.003769989
-0.0388889,0.003628875
-0.03875,0.002422626
-0.0386111,0.001361961
-0.0384722,0.000204886
-0.0383333,-0.00077
-0.0381944,-0.00227
-0.0380556,-0.00345
-0.0379167,-0.0041
-0.0377778,-0.00304
-0.0376389,-0.00109
-0.0375,0.001328135
-0.0373611,0.002685184
-0.0372222,0.003279889
-0.0370833,0.003016437
-0.0369444,0.002886499
-0.0368056,0.002459581
-0.0366667,0.001834924
-0.0365278,0.000193561
-0.0363889,-0.0017
-0.03625,-0.00349
-0.0361111,-0.00384
-0.0359722,-0.00313
-0.0358333,-0.00143
-0.0356944,-0.0000922
-0.0355556,0.001026685
-0.0354167,0.001652683
-0.0352778,0.002635712
-0.0351389,0.003285403
-0.035,0.003462876
-0.0348611,0.002144421
-0.0347222,9.268E-05
-0.0345833,-0.00233
-0.0344444,-0.00367
-0.0343056,-0.00416
-0.0341667,-0.00346
-0.0340278,-0.00264
-0.0338889,-0.00143
-0.03375,-0.000255
-0.0336111,0.001518274
-0.0334722,0.003084833
-0.0333333,0.004322077
-0.0331944,0.004041339
-0.0330556,0.00279739
-0.0329167,0.000762338
-0.0327778,-0.000724
-0.0326389,-0.00185
-0.0325,-0.00229
-0.0323611,-0.00272
-0.0322222,-0.00255
-0.0320833,-0.00203
-0.0319444,-0.000608
-0.0318056,0.000896449
-0.0316667,0.00243708
-0.0315278,0.003038044
-0.0313889,0.003066207
-0.03125,0.002283747
-0.0311111,0.001657451
-0.0309722,0.000756825
-0.0308333,-0.000109
-0.0306944,-0.00157
-0.0305556,-0.00269
-0.0304167,-0.00335
-0.0302778,-0.0027
-0.0301389,-0.00166
-0.03,-0.000346
-0.0298611,0.000339145
-0.0297222,0.001053805
-0.0295833,0.00141188
-0.0294444,0.001892293
-0.0293056,0.001794691
-0.0291667,0.001325304
-0.0290278,-0.0000753
-0.0288889,-0.00141
-0.02875,-0.00238
-0.0286111,-0.002
-0.0284722,-0.00107
-0.0283333,8.59745E-05
-0.0281944,0.000428701
-0.0280556,0.000743563
-0.0279167,0.000990326
-0.0277778,0.001798714
-0.0276389,0.002048159
-0.0275,0.001868451
-0.0273611,0.00045001
-0.0272222,-0.00105
-0.0270833,-0.00204
-0.0269444,-0.00175
-0.0268056,-0.000915
-0.0266667,0.000222022
-0.0265278,0.000466848
-0.0263889,0.000465209
-0.02625,0.00046208
-0.0261111,0.001412327
-0.0259722,0.002217288
-0.0258333,0.002495939
-0.0256944,0.001223678
-0.0255556,-0.00056
-0.0254167,-0.00228
-0.0252778,-0.00276
-0.0251389,-0.00257
-0.025,-0.00191
-0.0248611,-0.00185
-0.0247222,-0.00179
-0.0245833,-0.00154
-0.0244444,4.1122E-05
-0.0243056,0.002030874
-0.0241667,0.003769244
-0.0240278,0.003790552
-0.0238889,0.0025773
-0.02375,0.00060826
-0.0236111,-0.00064
-0.0234722,-0.00138
-0.0233333,-0.00159
-0.0231944,-0.00226
-0.0230556,-0.00277
-0.0229167,-0.00306
-0.0227778,-0.00188
-0.0226389,0.000144983
-0.0225,0.002609188
-0.0223611,0.003743018
-0.0222222,0.003704871
-0.0220833,0.002480293
-0.0219444,0.001505608
-0.0218056,0.000745798
-0.0216667,0.000417376
-0.0215278,-0.000527
-0.0213889,-0.00162
-0.02125,-0.00287
-0.0211111,-0.00308
-0.0209722,-0.00241
-0.0208333,-0.000745
-0.0206944,0.000491882
-0.0205556,0.001166756
-0.0204167,0.000855619
-0.0202778,0.000722999
-0.0201389,0.00060826
-0.02,0.000928188
-0.0198611,0.000684703
-0.0197222,0.000117118
-0.0195833,-0.00103
-0.0194444,-0.00174
-0.0193056,-0.00203
-0.0191667,-0.00125
-0.0190278,-0.000352
-0.0188889,0.000594104
-0.01875,0.000739837
-0.0186111,0.000803018
-0.0184722,0.000605131
-0.0183333,0.000777686
-0.0181944,0.000596786
-0.0180556,0.000408287
-0.0179167,-0.000311
-0.0177778,-0.000724
-0.0176389,-0.00106
-0.0175,-0.000551
-0.0173611,0.000255848
-0.0172222,0.00151738
-0.0170833,0.002071554
-0.0169444,0.002131606
-0.0168056,0.001358236
-0.0166667,0.000616754
-0.0165278,-0.000328
-0.0163889,-0.00094
-0.01625,-0.00178
-0.0161111,-0.00227
-0.0159722,-0.00276
-0.0158333,-0.00248
-0.0156944,-0.00178
-0.0155556,-0.00012
-0.0154167,0.001418138
-0.0152778,0.002661789
-0.0151389,0.002698148
-0.015,0.002268101
-0.0148611,0.001417095
-0.0147222,0.000840271
-0.0145833,-0.0000948
-0.0144444,-0.0011
-0.0143056,-0.00259
-0.0141667,-0.00364
-0.0140278,-0.00421
-0.0138889,-0.00331
-0.01375,-0.00164
-0.0136111,0.000654752
-0.0134722,0.002214158
-0.0133333,0.003286595
-0.0131944,0.003641839
-0.0130556,0.004153545
-0.0129167,0.004094834
-0.0127778,0.003415043
-0.0126389,0.00133499
-0.0125,-0.0012
-0.0123611,-0.0037
-0.0122222,-0.00483
-0.0120833,-0.00476
-0.0119444,-0.00338
-0.0118056,-0.00195
-0.0116667,-0.000409
-0.0115278,0.000764871
-0.0113889,0.002391184
-0.01125,0.003801728
-0.0111111,0.004901732
-0.0109722,0.004374082
-0.0108333,0.002663875
-0.0106944,8.0461E-05
-0.0105556,-0.00191
-0.0104167,-0.00326
-0.0102778,-0.00356
-0.0101389,-0.00387
-0.01,-0.00382
-0.0098611,-0.00365
-0.0097222,-0.00238
-0.0095833,-0.000443
-0.0094444,0.002089138
-0.0093056,0.003722901
-0.0091667,0.004447842
-0.0090278,0.00390097
-0.0088889,0.003143693
-0.00875,0.002115662
-0.0086111,0.001297588
-0.0084722,-0.000193
-0.0083333,-0.00189
-0.0081944,-0.00373
-0.0080556,-0.00433
-0.0079167,-0.00381
-0.0077778,-0.00202
-0.0076389,-0.000339
-0.0075,0.001186723
-0.0073611,0.001981104
-0.0072222,0.002831812
-0.0070833,0.003311927
-0.0069444,0.003667916
-0.0068056,0.002991403
-0.0066667,0.001671905
-0.0065278,-0.000418
-0.0063889,-0.00201
-0.00625,-0.00299
-0.0061111,-0.00287
-0.0059722,-0.00276
-0.0058333,-0.0025
-0.0056944,-0.00243
-0.0055556,-0.00155
-0.0054167,-0.000256
-0.0052778,0.00142544
-0.0051389,0.002308334
-0.005,0.002644802
-0.0048611,0.002090926
-0.0047222,0.001631821
-0.0045833,0.000985707
-0.0044444,0.000621969
-0.0043056,-0.000192
-0.0041667,-0.00114
-0.0040278,-0.00237
-0.0038889,-0.00265
-0.00375,-0.00206
-0.0036111,-0.000482
-0.0034722,0.000623757
-0.0033333,0.00125512
-0.0031944,0.001221294
-0.0030556,0.001595462
-0.0029167,0.001918966
-0.0027778,0.002321447
-0.0026389,0.001829708
-0.0025,0.000942791
-0.0023611,-0.000528
-0.0022222,-0.00142
-0.0020833,-0.00173
-0.0019444,-0.00103
-0.0018056,-0.000568
-0.0016667,-0.000507
-0.0015278,-0.00113
-0.0013889,-0.00105
-0.00125,-0.000311
-0.0011111,0.001060659
-0.0009722,0.001575346
-0.0008333,0.001390571
-0.0006944,0.00033542
-0.0005556,-0.000352
-0.0004167,-0.000813
-0.0002778,-0.000542
-0.0001389,-0.00054
0,-0.000742
0.00013889,-0.00161
0.00027778,-0.00184
0.00041667,-0.00121
0.00055556,0.000680382
0.00069444,0.002119834
0.00083333,0.002651657
0.00097222,0.001810486
0.00111111,0.00103801
0.00125,0.000523324
0.00138889,0.000649685
0.00152778,0.000327224
0.00166667,-0.00033
0.00180556,-0.00164
0.00194444,-0.00238
0.00208333,-0.00234
0.00222222,-0.000812
0.00236111,0.000880802
0.0025,0.002100165
0.00263889,0.001885141
0.00277778,0.00146761
0.00291667,0.001275832
0.00305556,0.00191837
0.00319444,0.002013589
0.00333333,0.001284475
0.00347222,-0.000706
0.00361111,-0.00254
0.00375,-0.00376
0.00388889,-0.00349
0.00402778,-0.00266
0.00416667,-0.00149
0.00430556,-0.00102
0.00444444,-0.000465
0.00458333,0.000428254
0.00472222,0.002398486
0.00486111,0.004087085
0.005,0.004802788
0.00513889,0.003463323
0.00527778,0.001352871
0.00541667,-0.000784
0.00555556,-0.00175
0.00569444,-0.00234
0.00583333,-0.00262
0.00597222,-0.0033
0.00611111,-0.00348
0.00625,-0.003
0.00638889,-0.000989
0.00652778,0.001417393
0.00666667,0.0036326
0.00680556,0.004195566
0.00694444,0.003773267
0.00708333,0.002776528
0.00722222,0.00242054
0.00736111,0.001991237
0.0075,0.001263613
0.00763889,-0.000638
0.00777778,-0.00269
0.00791667,-0.0044
0.00805556,-0.0045
0.00819444,-0.00371
0.00833333,-0.00216
0.00847222,-0.00118
0.00861111,-0.000254
0.00875,0.000457311
0.00888889,0.001878435
0.00902778,0.003210301
0.00916667,0.00415727
0.00930556,0.003545577
0.00944444,0.00201493
0.00958333,-0.0000376
0.00972222,-0.00127
0.00986111,-0.00199
0.01,-0.0021
0.01013889,-0.00252
0.01027778,-0.00268
0.01041667,-0.0027
0.01055556,-0.0017
0.01069444,-0.00039
0.01083333,0.001227254
0.01097222,0.002023424
0.01111111,0.002339775
0.01125,0.00204354
0.01138889,0.002108658
0.01152778,0.002092565
0.01166667,0.002193148
0.01180556,0.001489068
0.01194444,0.000517214
0.01208333,-0.0008
0.01222222,-0.00148
0.01236111,-0.00199
0.0125,-0.00196
0.01263889,-0.00213
0.01277778,-0.00195
0.01291667,-0.00177
0.01305556,-0.000947
0.01319444,-0.000154
0.01333333,0.000880653
0.01347222,0.001297737
0.01361111,0.001639868
0.01375,0.001509035
0.01388889,0.001559252
0.01402778,0.001234854
0.01416667,0.00090837
0.01430556,3.24793E-05
0.01444444,-0.000688
0.01458333,-0.00153
0.01472222,-0.00182
0.01486111,-0.0022
0.015,-0.00223
0.01513889,-0.00232
0.01527778,-0.00173
0.01541667,-0.000787
0.01555556,0.000826115
0.01569444,0.002110595
0.01583333,0.003093476
0.01597222,0.003165747
0.01611111,0.003065909
0.01625,0.002525891
0.01638889,0.002062316
0.01652778,0.000906432
0.01666667,-0.000467
0.01680556,-0.00226
0.01694444,-0.00327
0.01708333,-0.00351
0.01722222,-0.00256
0.01736111,-0.00151
0.0175,-0.000395
0.01763889,6.64539E-05
0.01777778,0.000683958
0.01791667,0.001359279
0.01805556,0.002490724
0.01819444,0.002881879
0.01833333,0.002495343
0.01847222,0.000909115
0.01861111,-0.000649
0.01875,-0.0019
0.01888889,-0.00203
0.01902778,-0.00199
0.01916667,-0.00184
0.01930556,-0.00223
0.01944444,-0.00216
0.01958333,-0.00156
0.01972222,0.000220234
0.01986111,0.001915241
0.02,0.002981121
0.02013889,0.002465541
0.02027778,0.001399959
0.02041667,0.000231112
0.02055556,2.11544E-05
0.02069444,4.41022E-05
0.02083333,0.000135744
0.02097222,-0.000551
0.02111111,-0.00117
0.02125,-0.00143
0.02138889,-0.00048
0.02152778,0.000819857
0.02166667,0.002010013
0.02180556,0.001813466
0.02194444,0.000819708
0.02208333,-0.000518
0.02222222,-0.000845
0.02236111,-0.000595
0.0225,3.20323E-05
0.02263889,-0.000244
0.02277778,-0.000882
0.02291667,-0.0017
0.02305556,-0.00146
0.02319444,-0.00061
0.02333333,0.000709737
0.02347222,0.00116005
0.02361111,0.000928784
0.02375,-0.0000694
0.02388889,-0.000448
0.02402778,-0.000302
0.02416667,0.000520194
0.02430556,0.000641937
0.02444444,7.64377E-05
0.02458333,-0.00133
0.02472222,-0.00206
0.02486111,-0.00202
0.025,-0.000879
0.02513889,0.000130827
0.02527778,0.000826264
0.02541667,0.000568176
0.02555556,0.000490243
0.02569444,0.000690664
0.02583333,0.00177964
0.02597222,0.002674157
0.02611111,0.002947445
0.02625,0.001787389
0.02638889,0.000304426
0.02652778,-0.000971
0.02666667,-0.00106
0.02680556,-0.000858
0.02694444,-0.000706
0.02708333,-0.0016
0.02722222,-0.00264
0.02736111,-0.00336
0.0275,-0.00248
0.02763889,-0.000681
0.02777778,0.001635397
0.02791667,0.002770121
0.02805556,0.002901102
0.02819444,0.002174372
0.02833333,0.002101357
0.02847222,0.002282555
0.02861111,0.002384926
0.02875,0.000877971
0.02888889,-0.00177
0.02902778,-0.00481
0.02916667,-0.00614
0.02930556,-0.00557
0.02944444,-0.00322
0.02958333,-0.00105
0.02972222,0.000504548
0.02986111,0.001039947
0.03,0.00208735
0.03013889,0.003858204
0.03027778,0.006233449
0.03041667,0.00697046
0.03055556,0.005443985
0.03069444,0.001764739
0.03083333,-0.00167
0.03097222,-0.00369
0.03111111,-0.00372
0.03125,-0.00351
0.03138889,-0.00367
0.03152778,-0.00459
0.03166667,-0.00455
0.03180556,-0.00277
0.03194444,0.001132781
0.03208333,0.004891301
0.03222222,0.006896252
0.03236111,0.005855704
0.0325,0.003572101
0.03263889,0.00155061
0.03277778,0.001047397
0.03291667,0.000509317
0.03305556,-0.000979
0.03319444,-0.00403
0.03333333,-0.00663
0.03347222,-0.00739
0.03361111,-0.00516
0.03375,-0.00164
0.03388889,0.001501287
0.03402778,0.002358849
0.03416667,0.00197425
0.03430556,0.001564319
0.03444444,0.002843583
0.03458333,0.004496122
0.03472222,0.005078162
0.03486111,0.003019119
0.035,-0.000125
0.03513889,-0.00273
0.03527778,-0.00297
0.03541667,-0.00193
0.03555556,-0.000749
0.03569444,-0.00114
0.03583333,-0.00229
0.03597222,-0.00314
0.03611111,-0.00184
0.03625,0.000785584
0.03638889,0.003463621
0.03652778,0.003933752
0.03666667,0.002721692
0.03680556,0.001037563
0.03694444,0.000862325
0.03708333,0.001578922
0.03722222,0.002177949
0.03736111,0.000977511
0.0375,-0.0013
0.03763889,-0.00365
0.03777778,-0.00428
0.03791667,-0.00349
0.03805556,-0.00184
0.03819444,-0.00125
0.03833333,-0.00147
0.03847222,-0.00195
0.03861111,-0.000828
0.03875,0.001474614
0.03888889,0.004010642
0.03902778,0.004654969
0.03916667,0.003711725
0.03930556,0.001767272
0.03944444,0.000587399
0.03958333,-0.000152
0.03972222,-0.000533
0.03986111,-0.00178
0.04,-0.00329
0.04013889,-0.00458
0.04027778,-0.00403
0.04041667,-0.00199
0.04055556,0.001039202
0.04069444,0.002947445
0.04083333,0.00364318
0.04097222,0.003256346
0.04111111,0.003219838
0.04125,0.003122086
0.04138889,0.002752388
0.04152778,0.001035327
0.04166667,-0.00121
0.04180556,-0.00342
0.04194444,-0.00413
0.04208333,-0.0037
0.04222222,-0.00222
0.04236111,-0.00121
0.0425,-0.000487
0.04263889,-0.000183
0.04277778,0.000872607
0.04291667,0.002081836
0.04305556,0.003115083
0.04319444,0.002560908
0.04333333,0.001066024
0.04347222,-0.000858
0.04361111,-0.00176
0.04375,-0.00202
0.04388889,-0.00162
0.04402778,-0.00161
0.04416667,-0.00148
0.04430556,-0.00126
0.04444444,6.40698E-05
0.04458333,0.001690531
0.04472222,0.003240848
0.04486111,0.003253365
0.045,0.002206112
0.04513889,0.000467295
0.04527778,-0.000447
0.04541667,-0.000941
0.04555556,-0.000945
0.04569444,-0.00147
0.04583333,-0.00174
0.04597222,-0.00172
0.04611111,-0.000486
0.04625,0.001108939
0.04638889,0.002666409
0.04652778,0.002792323
0.04666667,0.001950855
0.04680556,0.000356133
0.04694444,-0.000498
0.04708333,-0.000973
0.04722222,-0.00107
0.04736111,-0.00189
0.0475,-0.00264
0.04763889,-0.00308
0.04777778,-0.00216
0.04791667,-0.000654
0.04805556,0.001144851
0.04819444,0.001871283
0.04833333,0.001924778
0.04847222,0.001257951
0.04861111,0.001128311
0.04875,0.001154239
0.04888889,0.001250053
0.04902778,0.000262553
0.04916667,-0.00114
0.04930556,-0.00254
0.04944444,-0.00255
0.04958333,-0.00171
0.04972222,-0.000235
0.04986111,0.000639106
0.05,0.001171226
0.05013889,0.001167203
0.05027778,0.001614685
0.05041667,0.002074684
0.05055556,0.002590115
0.05069444,0.001981253
0.05083333,0.00066414
0.05097222,-0.00113
0.05111111,-0.00188
0.05125,-0.00174
0.05138889,-0.000799
0.05152778,-0.000385
0.05166667,-0.000272
0.05180556,-0.000669
0.05194444,-0.000567
0.05208333,-0.000279
0.05222222,0.000458504
0.05236111,0.000567431
0.0525,0.00030219
0.05263889,-0.000639
0.05277778,-0.000993
0.05291667,-0.000788
0.05305556,0.000245417
0.05319444,0.000772322
0.05333333,0.000818665
0.05347222,8.09081E-05
0.05361111,-0.000364
0.05375,-0.000607
0.05388889,-0.000164
0.05402778,9.268E-05
0.05416667,0.000337208
0.05430556,-0.0000982
0.05444444,-0.000362
0.05458333,-0.000507
0.05472222,0.000135744
0.05486111,0.000753994
0.055,0.001302356
0.05513889,0.0010395
0.05527778,0.000778729
0.05541667,0.000366861
0.05555556,0.000526006
0.05569444,0.000601257
0.05583333,0.000833417
0.05597222,0.000393087
0.05611111,-0.000252
0.05625,-0.0012
0.05638889,-0.00157
0.05652778,-0.0015
0.05666667,-0.000727
0.05680556,-0.000242
0.05694444,0.000197286
0.05708333,7.12223E-05
0.05722222,0.000142152
0.05736111,0.000125016
0.0575,0.000643725
0.05763889,0.000838185
0.05777778,0.000829691
0.05791667,-0.0000311
0.05805556,-0.000813
0.05819444,-0.00135
0.05833333,-0.000859
0.05847222,-0.000184
0.05861111,0.000504101
0.05875,0.000323201
0.05888889,-0.0000989
0.05902778,-0.000716
0.05916667,-0.000443
0.05930556,0.000306363
0.05944444,0.001433486
0.05958333,0.001652534
0.05972222,0.001246179
0.05986111,0.000345106
0.06,0.000252122
0.06013889,0.000583673
0.06027778,0.001225168
0.06041667,0.000890041
0.06055556,-0.0000529
0.06069444,-0.00157
0.06083333,-0.00224
0.06097222,-0.00195
0.06111111,-0.000469
0.06125,0.000630463
0.06138889,0.000976766
0.06152778,0.000138874
0.06166667,-0.000348
0.06180556,-0.000183
0.06194444,0.000986899
0.06208333,0.001601274
0.06222222,0.001368964
0.06236111,-0.0000972
0.0625,-0.00145
0.06263889,-0.00225
0.06277778,-0.00169
0.06291667,-0.000773
0.06305556,-0.0000754
0.06319444,-0.000643
0.06333333,-0.00135
0.06347222,-0.00148
0.06361111,5.17018E-05
0.06375,0.001983935
0.06388889,0.003435011
0.06402778,0.003101672
0.06416667,0.001921052
0.06430556,0.00035345
0.06444444,-0.000247
0.06458333,-0.000273
0.06472222,0.000115181
0.06486111,-0.000464
0.065,-0.0016
0.06513889,-0.00286
0.06527778,-0.0025
0.06541667,-0.000896
0.06555556,0.001428718
0.06569444,0.002510841
0.06583333,0.002395059
0.06597222,0.001212949
0.06611111,0.000551338
0.06625,0.000512148
0.06638889,0.001287604
0.06652778,0.001389826
0.06666667,0.000542546
0.06680556,-0.00162
0.06694444,-0.00335
0.06708333,-0.00389
0.06722222,-0.00265
0.06736111,-0.00126
0.0675,-0.000354
0.06763889,-0.000596
0.06777778,-0.000618
0.06791667,-0.0000119
0.06805556,0.001893336
0.06819444,0.003703082
0.06833333,0.004650796
0.06847222,0.003438885
0.06861111,0.001135463
0.06875,-0.00126
0.06888889,-0.00198
0.06902778,-0.00167
0.06916667,-0.00106
0.06930556,-0.00162
0.06944444,-0.00252
0.06958333,-0.00316
0.06972222,-0.002
0.06986111,0.000295485
0.07,0.003026421
0.07013889,0.004239971
0.07027778,0.003875489
0.07041667,0.002169157
0.07055556,0.001195664
0.07069444,0.001191194
0.07083333,0.001907194
0.07097222,0.001278067
0.07111111,-0.00078
0.07125,-0.00381
0.07138889,-0.00555
0.07152778,-0.00542
0.07166667,-0.00318
0.07180556,-0.000899
0.07194444,0.000607217
0.07208333,0.00058263
0.07222222,0.000617946
0.07236111,0.001427973
0.0725,0.003622616
0.07263889,0.00510707
0.07277778,0.004726345
0.07291667,0.001866663
0.07305556,-0.0013
0.07319444,-0.00334
0.07333333,-0.00308
0.07347222,-0.00198
0.07361111,-0.00113
0.07375,-0.00175
0.07388889,-0.00272
0.07402778,-0.00295
0.07416667,-0.000944
0.07430556,0.002124751
0.07444444,0.004705037
0.07458333,0.004732753
0.07472222,0.003180797
0.07486111,0.001392359
0.075,0.001221443
0.07513889,0.001766378
0.07527778,0.002009565
0.07541667,0.00029012
0.07555556,-0.00254
0.07569444,-0.00529
0.07583333,-0.00582
0.07597222,-0.00421
0.07611111,-0.00129
0.07625,0.000464315
0.07638889,0.000805105
0.07652778,0.000191922
0.07666667,0.000773514
0.07680556,0.002411301
0.07694444,0.004354263
0.07708333,0.004346217
0.07722222,0.002526785
0.07736111,-0.000432
0.0775,-0.00235
0.07763889,-0.00287
0.07777778,-0.00196
0.07791667,-0.00145
0.07805556,-0.00173
0.07819444,-0.0029
0.07833333,-0.00307
0.07847222,-0.00172
0.07861111,0.001126225
0.07875,0.003298665
0.07888889,0.004101838
0.07902778,0.003208662
0.07916667,0.002403999
0.07930556,0.002003307
0.07944444,0.002266014
0.07958333,0.001775766
0.07972222,0.000480408
0.07986111,-0.00184
0.08,-0.00357
0.08013889,-0.00416
0.08027778,-0.00293
0.08041667,-0.00141
0.08055556,-0.000189
0.08069444,-0.000115
0.08083333,3.24793E-05
0.08097222,0.000545675
0.08111111,0.001878733
0.08125,0.002679969
0.08138889,0.002693827
0.08152778,0.001428718
0.08166667,0.000159288
0.08180556,-0.000848
0.08194444,-0.000959
0.08208333,-0.00116
0.08222222,-0.00149
0.08236111,-0.00243
0.0825,-0.0029
0.08263889,-0.00267
0.08277778,-0.00113
0.08291667,0.000490392
0.08305556,0.00183403
0.08319444,0.002113576
0.08333333,0.002186144
0.08347222,0.002148295
0.08361111,0.002524252
0.08375,0.002269293
0.08388889,0.001458073
0.08402778,-0.000288
0.08416667,-0.00165
0.08430556,-0.00239
0.08444444,-0.00189
0.08458333,-0.00119
0.08472222,-0.000464
0.08486111,-0.000479
0.085,-0.000358
0.08513889,-0.000121
0.08527778,0.000918055
0.08541667,0.001730467
0.08555556,0.002151574
0.08569444,0.001388932
0.08583333,0.000448222
0.08597222,-0.000444
0.08611111,-0.000412
0.08625,-0.000438
0.08638889,-0.000663
0.08652778,-0.00172
0.08666667,-0.00251
0.08680556,-0.00278
0.08694444,-0.00176
0.08708333,-0.00042
0.08722222,0.000969762
0.08736111,0.001342142
0.0875,0.001286263
0.08763889,0.000867391
0.08777778,0.001112068
0.08791667,0.001344527
0.08805556,0.001473273
0.08819444,0.000515426
0.08833333,-0.000632
0.08847222,-0.00162
0.08861111,-0.0013
0.08875,-0.000453
0.08888889,0.000557298
0.08902778,0.000611389
0.08916667,0.000359709
0.08930556,-0.000216
0.08944444,-0.0000362
0.08958333,0.000514383
0.08972222,0.001369709
0.08986111,0.001334096
0.09,0.000726128
0.09013889,-0.000429
0.09027778,-0.000778
0.09041667,-0.000599
0.09055556,1.63389E-06
0.09069444,-0.000286
0.09083333,-0.00094
0.09097222,-0.00177
0.09111111,-0.00161
0.09125,-0.000842
0.09138889,0.000514383
0.09152778,0.001083458
0.09166667,0.000991369
0.09180556,-0.0000177
0.09194444,-0.000633
0.09208333,-0.000766
0.09222222,-0.0000697
0.09236111,0.000143642
0.0925,-0.0000881
0.09263889,-0.000914
0.09277778,-0.000899
0.09291667,-0.000199
0.09305556,0.001231278
0.09319444,0.001877541
0.09333333,0.001726294
0.09347222,0.000526304
0.09361111,-0.000377
0.09375,-0.000781
0.09388889,-0.000115
0.09402778,0.00040784
0.09416667,0.000517661
0.09430556,-0.000374
0.09444444,-0.000916
0.09458333,-0.0008
0.09472222,0.000493372
0.09486111,0.001438851
0.095,0.001708562
0.09513889,0.000706757
0.09527778,-0.000243
0.09541667,-0.000784
0.09555556,-0.000321
0.09569444,-0.0000235
0.09583333,-0.000205
0.09597222,-0.00158
0.09611111,-0.00286
0.09625,-0.00336
0.09638889,-0.00208
0.09652778,-0.000236
0.09666667,0.001462544
0.09680556,0.001810337
0.09694444,0.001663858
0.09708333,0.001419628
0.09722222,0.001986916
0.09736111,0.002300436
0.0975,0.001902277
0.09763889,-0.0000992
0.09777778,-0.00242
0.09791667,-0.00418
0.09805556,-0.00387
0.09819444,-0.00228
0.09833333,-0.000139
0.09847222,0.000960822
0.09861111,0.001458818
0.09875,0.001611853
0.09888889,0.002629305
0.09902778,0.003731544
0.09916667,0.004348303
0.09930556,0.003077979
0.09944444,0.000705565
0.09958333,-0.00201
0.09972222,-0.00324
0.09986111,-0.00323
0.1,-0.00232
0.10013889,-0.0021
0.10027778,-0.0022
0.10041667,-0.00235
0.10055556,-0.00115
0.10069444,0.0008811
0.10083333,0.003217305
0.10097222,0.003972197
0.10111111,0.003154571
0.10125,0.001025046
0.10138889,-0.000608
0.10152778,-0.00146
0.10166667,-0.00136
0.10180556,-0.00177
0.10194444,-0.00243
0.10208333,-0.0032
0.10222222,-0.00257
0.10236111,-0.000766
0.1025,0.001877988
0.10263889,0.003461833
0.10277778,0.003665084
0.10291667,0.002262885
0.10305556,0.000870074
0.10319444,-0.000117
0.10333333,-0.000112
0.10347222,-0.000352
0.10361111,-0.000853
0.10375,-0.00184
0.10388889,-0.00189
0.10402778,-0.00095
0.10416667,0.000967825
0.10430556,0.002181674
0.10444444,0.002455557
0.10458333,0.001354808
0.10472222,0.000230218
0.10486111,-0.000651
0.105,-0.000618
0.10513889,-0.000717
0.10527778,-0.00105
0.10541667,-0.00208
0.10555556,-0.00255
0.10569444,-0.00219
0.10583333,-0.000576
0.10597222,0.000856812
0.10611111,0.001811678
0.10625,0.001624817
0.10638889,0.001390869
0.10652778,0.001090313
0.10666667,0.001205648
0.10680556,0.000726575
0.10694444,-0.000177
0.10708333,-0.00184
0.10722222,-0.003
0.10736111,-0.00335
0.1075,-0.00212
0.10763889,-0.000417
0.10777778,0.001313681
0.10791667,0.002071703
0.10805556,0.002696062
0.10819444,0.003040875
0.10833333,0.003563459
0.10847222,0.003137583
0.10861111,0.001892591
0.10875,-0.000376
0.10888889,-0.00226
0.10902778,-0.0035
0.10916667,-0.0033
0.10930556,-0.00254
0.10944444,-0.00136
0.10958333,-0.000828
0.10972222,-0.000241
0.10986111,0.000355089
0.11,0.00158831
0.11013889,0.002374048
0.11027778,0.002511288
0.11041667,0.001309509
0.11055556,4.91686E-05
0.11069444,-0.000938
0.11083333,-0.000948
0.11097222,-0.00101
0.11111111,-0.00108
0.11125,-0.0018
0.11138889,-0.00223
0.11152778,-0.00229
0.11166667,-0.00118
0.11180556,0.000266428
0.11194444,0.001685763
0.11208333,0.001878733
0.11222222,0.001538391
0.11236111,0.000984664
0.1125,0.001321877
0.11263889,0.001545245
0.11277778,0.001459564
0.11291667,0.0003761
0.11305556,-0.000671
0.11319444,-0.00139
0.11333333,-0.00099
0.11347222,-0.000319
0.11361111,0.00051632
0.11375,0.000428254
0.11388889,-0.000124
0.11402778,-0.00101
0.11416667,-0.000943
0.11430556,-0.00031
0.11444444,0.000668312
0.11458333,0.000647748
0.11472222,0.000432427
0.11486111,-0.0000374
0.115,0.000316495
0.11513889,0.000732685
0.11527778,0.0008811
0.11541667,1.44489E-05
0.11555556,-0.00108
0.11569444,-0.00232
0.11583333,-0.00262
0.11597222,-0.00226
0.11611111,-0.00102
0.11625,-0.000191
0.11638889,0.000308598
0.11652778,0.000276113
0.11666667,0.000886465
0.11680556,0.001655812
0.11694444,0.002345736
0.11708333,0.001914347
0.11722222,0.001054401
0.11736111,-0.0000373
0.1175,-0.000442
0.11763889,-0.000709
0.11777778,-0.000577
0.11791667,-0.000746
0.11805556,-0.000841
0.11819444,-0.00122
0.11833333,-0.000986
0.11847222,-0.000395
0.11861111,0.000807787
0.11875,0.001353914
0.11888889,0.001539583
0.11902778,0.00122636
0.11916667,0.001328284
0.11930556,0.001115347
0.11944444,0.000660116
0.11958333,-0.000564
0.11972222,-0.00152
0.11986111,-0.00221
0.12,-0.00199
0.12013889,-0.00159
0.12027778,-0.000786
0.12041667,-0.000423
0.12055556,-0.000086
0.12069444,-0.000122
0.12083333,0.000343169
0.12097222,0.000663544
0.12111111,0.000832523
0.12125,0.000119204
0.12138889,-0.000476
0.12152778,-0.000643
0.12166667,0.000346149
0.12180556,0.00123694
0.12194444,0.001732106
0.12208333,0.001104171
0.12222222,0.000366116
0.12236111,-0.00036
0.1225,-0.00026
0.12263889,-0.000144
0.12277778,-0.0000641
0.12291667,-0.000907
0.12305556,-0.00167
0.12319444,-0.00193
0.12333333,-0.000659
0.12347222,0.000940109
0.12361111,0.002115215
0.12375,0.001723761
0.12388889,0.000897641
0.12402778,0.000318433
0.12416667,0.000991965
0.12430556,0.001735235
0.12444444,0.001932228
0.12458333,0.000414694
0.12472222,-0.00179
0.12486111,-0.00379
0.125,-0.004
0.12513889,-0.00308
0.12527778,-0.00171
0.12541667,-0.00145
0.12555556,-0.00144
0.12569444,-0.000923
0.12583333,0.001379246
0.12597222,0.004161889
0.12611111,0.006092633
0.12625,0.005349214
0.12638889,0.002842689
0.12652778,-0.00027
0.12666667,-0.0019
0.12680556,-0.00231
0.12694444,-0.00215
0.12708333,-0.00302
0.12722222,-0.00428
0.12736111,-0.00494
0.1275,-0.00318
0.12763889,0.000190134
0.12777778,0.003825719
0.12791667,0.005309279
0.12805556,0.004851217
0.12819444,0.003305817
0.12833333,0.002805884
0.12847222,0.003094221
0.12861111,0.003323699
0.12875,0.001497114
0.12888889,-0.00196
0.12902778,-0.00581
0.12916667,-0.00742
0.12930556,-0.00658
0.12944444,-0.00394
0.12958333,-0.00196
0.12972222,-0.00086
0.12986111,-0.000277
0.13,0.001675332
0.13013889,0.004603113
0.13027778,0.007508839
0.13041667,0.007710303
0.13055556,0.005112732
0.13069444,0.000674421
0.13083333,-0.00275
0.13097222,-0.00428
0.13111111,-0.00403
0.13125,-0.00406
0.13138889,-0.00465
0.13152778,-0.00545
0.13166667,-0.00433
0.13180556,-0.00125
0.13194444,0.003080661
0.13208333,0.005857194
0.13222222,0.006344462
0.13236111,0.004632766
0.1325,0.003121937
0.13263889,0.002537067
0.13277778,0.002816463
0.13291667,0.001842672
0.13305556,-0.00063
0.13319444,-0.00422
0.13333333,-0.00638
0.13347222,-0.00619
0.13361111,-0.0036
0.13375,-0.00104
0.13388889,0.000508124
0.13402778,0.000531817
0.13416667,0.000926996
0.13430556,0.00215664
0.13444444,0.004186774
0.13458333,0.004839743
0.13472222,0.003529782
0.13486111,0.000353152
0.135,-0.00234
0.13513889,-0.00349
0.13527778,-0.00257
0.13541667,-0.0014
0.13555556,-0.000863
0.13569444,-0.00166
0.13583333,-0.00209
0.13597222,-0.0015
0.13611111,0.000546271
0.13625,0.002110893
0.13638889,0.002428735
0.13652778,0.001047248
0.13666667,-0.000103
0.13680556,-0.000285
0.13694444,0.001040096
0.13708333,0.002142484
0.13722222,0.002384628
0.13736111,0.001044715
0.1375,-0.000442
0.13763889,-0.00134
0.13777778,-0.000688
0.13791667,0.000129635
0.13805556,0.00036865
0.13819444,-0.000824
0.13833333,-0.00198
0.13847222,-0.00234
0.13861111,-0.00119
0.13875,1.579E-05
0.13888889,0.000807787
0.13902778,0.000545377
0.13916667,0.000341827
0.13930556,0.000434066
0.13944444,0.001499052
0.13958333,0.002382542
0.13972222,0.002693231
0.13986111,0.001278663
0.14,-0.000787
0.14013889,-0.0028
0.14027778,-0.00335
0.14041667,-0.00327
0.14055556,-0.00282
0.14069444,-0.00276
0.14083333,-0.00201
0.14097222,-0.000579
0.14111111,0.001778746
0.14125,0.003712917
0.14138889,0.005070413
0.14152778,0.004789973
0.14166667,0.003541107
0.14180556,0.00146016
0.14194444,-0.000133
0.14208333,-0.00135
0.14222222,-0.00201
0.14236111,-0.00301
0.1425,-0.00355
0.14263889,-0.00341
0.14277778,-0.00194
0.14291667,-0.000342
0.14305556,0.001293267
0.14319444,0.00219285
0.14333333,0.002944166
0.14347222,0.002977545
0.14361111,0.002815122
0.14375,0.00210091
0.14388889,0.001415009
0.14402778,3.00951E-05
0.14416667,-0.00157
0.14430556,-0.00343
0.14444444,-0.00422
0.14458333,-0.00419
0.14472222,-0.00321
0.14486111,-0.00209
0.145,-0.000379
0.14513889,0.001263911
0.14527778,0.002832259
0.14541667,0.003358568
0.14555556,0.003502662
0.14569444,0.002974416
0.14583333,0.002212966
0.14597222,0.00059768
0.14611111,-0.00109
0.14625,-0.00257
0.14638889,-0.00286
0.14652778,-0.00258
0.14666667,-0.00162
0.14680556,-0.000662
0.14694444,0.000528837
0.14708333,0.001091356
0.14722222,0.001599485
0.14736111,0.001861746
0.1475,0.002559567
0.14763889,0.002705897
0.14777778,0.00214308
0.14791667,0.000503505
0.14805556,-0.000826
0.14819444,-0.00167
0.14833333,-0.00166
0.14847222,-0.0018
0.14861111,-0.00186
0.14875,-0.00219
0.14888889,-0.002
0.14902778,-0.00142
0.14916667,0.000279392
0.14930556,0.001911367
0.14944444,0.00298276
0.14958333,0.002313996
0.14972222,0.000948007
0.14986111,-0.00043
0.15,-0.000591
0.15013889,-0.000489
0.15027778,-0.000445
0.15041667,-0.00119
0.15055556,-0.00162
0.15069444,-0.00159
0.15083333,-0.000308
0.15097222,0.001205797
0.15111111,0.002451683
0.15125,0.002120132
0.15138889,0.000832374
0.15152778,-0.000745
0.15166667,-0.000887
0.15180556,-0.0000915
0.15194444,0.001094336
0.15208333,0.001053507
0.15222222,0.000428403
0.15236111,-0.000393
0.1525,-0.0000532
0.15263889,0.000846679
0.15277778,0.001869196
0.15291667,0.001539583
0.15305556,0.000157351
0.15319444,-0.00195
0.15333333,-0.00291
0.15347222,-0.00265
0.15361111,-0.00133
0.15375,-0.000729
0.15388889,-0.000847
0.15402778,-0.00148
0.15416667,-0.000903
0.15430556,0.000733579
0.15444444,0.003135199
0.15458333,0.004384811
0.15472222,0.004144306
0.15486111,0.002138162
0.155,9.2233E-05
0.15513889,-0.00147
0.15527778,-0.00197
0.15541667,-0.00275
0.15555556,-0.00381
0.15569444,-0.00519
0.15583333,-0.00506
0.15597222,-0.00304
0.15611111,0.00086456
0.15625,0.004484052
0.15638889,0.006891186
0.15652778,0.006954665
0.15666667,0.005864794
0.15680556,0.004204507
0.15694444,0.002967561
0.15708333,0.00122949
0.15722222,-0.00115
0.15736111,-0.00452
0.1575,-0.00708
0.15763889,-0.00791
0.15777778,-0.00612
0.15791667,-0.0032
0.15805556,-0.0000927
0.15819444,0.001831049
0.15833333,0.003264839
0.15847222,0.004306877
0.15861111,0.005812342
0.15875,0.006589139
0.15888889,0.006160582
0.15902778,0.003378088
0.15916667,-0.000441
0.15930556,-0.00419
0.15944444,-0.00609
0.15958333,-0.00662
0.15972222,-0.00609
0.15986111,-0.00574
0.16,-0.00476
0.16013889,-0.00294
0.16027778,0.000474746
0.16041667,0.004107947
0.16055556,0.007179076
0.16069444,0.007887775
0.16083333,0.006734277
0.16097222,0.004252637
0.16111111,0.002272571
0.16125,0.000766362
0.16138889,-0.00036
0.16152778,-0.00234
0.16166667,-0.0044
0.16180556,-0.00593
0.16194444,-0.00543
0.16208333,-0.00361
0.16222222,-0.00109
0.16236111,0.000464315
0.1625,0.001368964
0.16263889,0.001708264
0.16277778,0.002825106
0.16291667,0.004291827
0.16305556,0.005690897
0.16319444,0.005298252
0.16333333,0.00327229
0.16347222,7.53946E-05
0.16361111,-0.00228
0.16375,-0.0036
0.16388889,-0.00394
0.16402778,-0.0048
0.16416667,-0.0057
0.16430556,-0.00622
0.16444444,-0.0048
0.16458333,-0.00192
0.16472222,0.001873369
0.16486111,0.004548127
0.165,0.005775834
0.16513889,0.005296464
0.16527778,0.004800106
0.16541667,0.004478539
0.16555556,0.004391516
0.16569444,0.002868319
0.16583333,-0.0000823
0.16597222,-0.00396
0.16611111,-0.00643
0.16625,-0.00697
0.16638889,-0.00553
0.16652778,-0.00384
0.16666667,-0.00213
0.16680556,-0.000789
0.16694444,0.001409049
0.16708333,0.004203463
0.16722222,0.007467712
0.16736111,0.009037698
0.1675,0.008243913
0.16763889,0.0047633
0.16777778,0.000667269
0.16791667,-0.00282
0.16805556,-0.00475
0.16819444,-0.00625
0.16833333,-0.00743
0.16847222,-0.00835
0.16861111,-0.00751
0.16875,-0.00486
0.16888889,-0.000431
0.16902778,0.003736759
0.16916667,0.006733979
0.16930556,0.007316465
0.16944444,0.006606723
0.16958333,0.005161757
0.16972222,0.004097963
0.16986111,0.002492512
0.17,0.000122482
0.17013889,-0.0034
0.17027778,-0.00636
0.17041667,-0.00785
0.17055556,-0.00696
0.17069444,-0.00481
0.17083333,-0.00182
0.17097222,0.000643278
0.17111111,0.002926136
0.17125,0.004615183
0.17138889,0.006358916
0.17152778,0.007266993
0.17166667,0.007047797
0.17180556,0.004769708
0.17194444,0.001490707
0.17208333,-0.00209
0.17222222,-0.00446
0.17236111,-0.00582
0.1725,-0.00588
0.17263889,-0.0055
0.17277778,-0.00428
0.17291667,-0.00289
0.17305556,-0.000866
0.17319444,0.001121903
0.17333333,0.003215069
0.17347222,0.004290337
0.17361111,0.004557217
0.17375,0.003583128
0.17388889,0.002405191
0.17402778,0.000934447
0.17416667,-0.000196
0.17430556,-0.00149
0.17444444,-0.00238
0.17458333,-0.00335
0.17472222,-0.0038
0.17486111,-0.00397
0.175,-0.00297
0.17513889,-0.00137
0.17527778,0.000928188
0.17541667,0.002551968
0.17555556,0.003644819
0.17569444,0.003739441
0.17583333,0.003677154
0.17597222,0.003119851
0.17611111,0.002600546
0.17625,0.001476253
0.17638889,0.000115926
0.17652778,-0.0018
0.17666667,-0.00314
0.17680556,-0.00367
0.17694444,-0.00281
0.17708333,-0.00175
0.17722222,-0.000811
0.17736111,-0.000786
0.1775,-0.00056
0.17763889,-0.0000426
0.17777778,0.00127464
0.17791667,0.002305652
0.17805556,0.002836729
0.17819444,0.001981849
0.17833333,0.000647152
0.17847222,-0.000783
0.17861111,-0.00114
0.17875,-0.0011
0.17888889,-0.001
0.17902778,-0.00185
0.17916667,-0.00271
0.17930556,-0.00298
0.17944444,-0.00159
0.17958333,0.000312621
0.17972222,0.002056206
0.17986111,0.00231951
0.18,0.001741046
0.18013889,0.000703181
0.18027778,0.000601555
0.18041667,0.00100478
0.18055556,0.001642252
0.18069444,0.001170183
0.18083333,5.58741E-05
0.18097222,-0.00128
0.18111111,-0.0013
0.18125,-0.000541
0.18138889,0.000498886
0.18152778,0.000274474
0.18166667,-0.00065
0.18180556,-0.00186
0.18194444,-0.00175
0.18208333,-0.000682
0.18222222,0.000995988
0.18236111,0.00169083
0.1825,0.001502926
0.18263889,0.00052839
0.18277778,0.000126506
0.18291667,0.000230367
0.18305556,0.000805552
0.18319444,0.000368053
0.18333333,-0.000785
0.18347222,-0.00239
0.18361111,-0.00285
0.18375,-0.00227
0.18388889,-0.000709
0.18402778,0.000176276
0.18416667,0.000406349
0.18430556,7.29633E-06
0.18444444,0.000331397
0.18458333,0.001079584
0.18472222,0.002236361
0.18486111,0.002451683
0.185,0.001829112
0.18513889,0.000360752
0.18527778,-0.000648
0.18541667,-0.0012
0.18555556,-0.000956
0.18569444,-0.00101
0.18583333,-0.00122
0.18597222,-0.00167
0.18611111,-0.00106
0.18625,0.000275964
0.18638889,0.002076621
0.18652778,0.00273853
0.18666667,0.002486999
0.18680556,0.001305635
0.18694444,0.000510956
0.18708333,-0.000237
0.18722222,-0.00069
0.18736111,-0.00167
0.1875,-0.00249
0.18763889,-0.00319
0.18777778,-0.00261
0.18791667,-0.00117
0.18805556,0.000953371
0.18819444,0.002036984
0.18833333,0.002071554
0.18847222,0.001139487
0.18861111,0.000855918
0.18875,0.000900025
0.18888889,0.001049633
0.18902778,-0.0000645
0.18916667,-0.00167
0.18930556,-0.00319
0.18944444,-0.00321
0.18958333,-0.00216
0.18972222,-0.000246
0.18986111,0.001032943
0.19,0.001677567
0.19013889,0.001519168
0.19027778,0.001981402
0.19041667,0.003009731
0.19055556,0.004271115
0.19069444,0.003700251
0.19083333,0.001326943
0.19097222,-0.00205
0.19111111,-0.004
0.19125,-0.00421
0.19138889,-0.00298
0.19152778,-0.00213
0.19166667,-0.00156
0.19180556,-0.00138
0.19194444,-0.00022
0.19208333,0.001742984
0.19222222,0.004402841
0.19236111,0.005627567
0.1925,0.004616822
0.19263889,0.00128671
0.19277778,-0.00179
0.19291667,-0.00328
0.19305556,-0.00286
0.19319444,-0.00268
0.19333333,-0.00322
0.19347222,-0.00445
0.19361111,-0.00432
0.19375,-0.00254
0.19388889,0.00081792
0.19402778,0.003675664
0.19416667,0.005166525
0.19430556,0.004303152
0.19444444,0.002713645
0.19458333,0.001569534
0.19472222,0.001998986
0.19486111,0.002207304
0.195,0.001035774
0.19513889,-0.00213
0.19527778,-0.00485
0.19541667,-0.00557
0.19555556,-0.00359
0.19569444,-0.000932
0.19583333,0.001209373
0.19597222,0.001653279
0.19611111,0.00153392
0.19625,0.00147372
0.19638889,0.002620662
0.19652778,0.003838236
0.19666667,0.00404268
0.19680556,0.001736725
0.19694444,-0.00154
0.19708333,-0.00404
0.19722222,-0.00389
0.19736111,-0.00242
0.1975,-0.00108
0.19763889,-0.00138
0.19777778,-0.00213
0.19791667,-0.00246
0.19805556,-0.00113
0.19819444,0.000898088
0.19833333,0.002891118
0.19847222,0.003087963
0.19861111,0.001974399
0.19875,0.000305916
0.19888889,6.37717E-05
0.19902778,0.000846232
0.19916667,0.001799906
0.19930556,0.000943536
0.19944444,-0.000995
0.19958333,-0.00295
0.19972222,-0.00305
0.19986111,-0.002
0.2,-0.000289
0.20013889,0.000506783
0.20027778,0.00066563
0.20041667,0.000240202
0.20055556,0.000649983
0.20069444,0.001658792
0.20083333,0.003136093
0.20097222,0.00332802
0.20111111,0.002256329
0.20125,0.00022083
0.20138889,-0.000955
0.20152778,-0.00136
0.20166667,-0.00114
0.20180556,-0.00169
0.20194444,-0.00256
0.20208333,-0.00356
0.20222222,-0.00336
0.20236111,-0.00232
0.2025,-0.00024
0.20263889,0.001513655
0.20277778,0.002805586
0.20291667,0.002965326
0.20305556,0.002955789
0.20319444,0.00252142
0.20333333,0.002038772
0.20347222,0.000634039
0.20361111,-0.00108
0.20375,-0.00295
0.20388889,-0.00375
0.20402778,-0.00374
0.20416667,-0.00272
0.20430556,-0.00158
0.20444444,3.35224E-05
0.20458333,0.001432145
0.20472222,0.002915854
0.20486111,0.003688181
0.205,0.003955508
0.20513889,0.003096158
0.20527778,0.001932973
0.20541667,0.000457758
0.20555556,-0.000459
0.20569444,-0.00142
0.20583333,-0.0021
0.20597222,-0.00299
0.20611111,-0.00298
0.20625,-0.00224
0.20638889,-0.000528
0.20652778,0.000911648
0.20666667,0.001907045
0.20680556,0.001799757
0.20694444,0.001536006
0.20708333,0.001100595
0.20722222,0.001126374
0.20736111,0.000586206
0.2075,-0.000487
0.20763889,-0.0024
0.20777778,-0.0036
0.20791667,-0.00347
0.20805556,-0.00149
0.20819444,0.000653113
0.20833333,0.002225185
0.20847222,0.002297456
0.20861111,0.001940722
0.20875,0.001484448
0.20888889,0.001633758
0.20902778,0.001333947
0.20916667,0.000357027
0.20930556,-0.00182
0.20944444,-0.00363
0.20958333,-0.00416
0.20972222,-0.00227
0.20986111,0.000499184
0.21,0.002850587
0.21013889,0.00331908
0.21027778,0.003051902
0.21041667,0.002647931
0.21055556,0.003081108
0.21069444,0.003121043
0.21083333,0.002234871
0.21097222,-0.000317
0.21111111,-0.00325
0.21125,-0.00558
0.21138889,-0.00566
0.21152778,-0.00413
0.21166667,-0.00175
0.21180556,-0.000442
0.21194444,0.000393534
0.21208333,0.001259441
0.21222222,0.003374065
0.21236111,0.005484814
0.2125,0.006499583
0.21263889,0.004962529
0.21277778,0.001929695
0.21291667,-0.00168
0.21305556,-0.0042
0.21319444,-0.00559
0.21333333,-0.00555
0.21347222,-0.00524
0.21361111,-0.00447
0.21375,-0.00327
0.21388889,-0.000545
0.21402778,0.002932245
0.21416667,0.006301845
0.21430556,0.00752836
0.21444444,0.006875838
0.21458333,0.00482365
0.21472222,0.002854908
0.21486111,0.000756676
0.215,-0.001
0.21513889,-0.00281
0.21527778,-0.00398
0.21541667,-0.00487
0.21555556,-0.00472
0.21569444,-0.00389
0.21583333,-0.00198
0.21597222,-0.000181
0.21611111,0.001489664
0.21625,0.002409215
0.21638889,0.0034894
0.21652778,0.003962661
0.21666667,0.003820951
0.21680556,0.00249892
0.21694444,0.00115558
0.21708333,-0.000291
0.21722222,-0.00141
0.21736111,-0.00303
0.2175,-0.00434
0.21763889,-0.00512
0.21777778,-0.00442
0.21791667,-0.00297
0.21805556,-0.00089
0.21819444,0.000697965
0.21833333,0.001850272
0.21847222,0.002014036
0.21861111,0.00233158
0.21875,0.002925987
0.21888889,0.004038806
0.21902778,0.003987695
0.21916667,0.002591903
0.21930556,9.35741E-05
0.21944444,-0.00143
0.21958333,-0.00176
0.21972222,-0.00114
0.21986111,-0.00132
0.22,-0.00225
0.22013889,-0.00381
0.22027778,-0.00407
0.22041667,-0.0027
0.22055556,0.000578607
0.22069444,0.00349089
0.22083333,0.004815007
0.22097222,0.003663296
0.22111111,0.002106572
0.22125,0.001331115
0.22138889,0.001947279
0.22152778,0.001811529
0.22166667,3.27773E-05
0.22180556,-0.00356
0.22194444,-0.00641
0.22208333,-0.00714
0.22222222,-0.00501
0.22236111,-0.002
0.2225,0.000296528
0.22263889,0.000464613
0.22277778,1.89192E-05
0.22291667,0.000373865
0.22305556,0.002913172
0.22319444,0.005768234
0.22333333,0.006958092
0.22347222,0.004876102
0.22361111,0.00126555
0.22375,-0.00195
0.22388889,-0.00281
0.22402778,-0.00237
0.22416667,-0.00187
0.22430556,-0.00298
0.22444444,-0.00455
0.22458333,-0.00509
0.22472222,-0.00277
0.22486111,0.00132143
0.225,0.005288417
0.22513889,0.006418968
0.22527778,0.005050147
0.22541667,0.002431864
0.22555556,0.001060361
0.22569444,0.000882889
0.22583333,0.001207734
0.22597222,-0.00000135
0.22611111,-0.00241
0.22625,-0.00513
0.22638889,-0.00583
0.22652778,-0.0045
0.22666667,-0.00179
0.22680556,-0.0000916
0.22694444,0.000209654
0.22708333,-0.000681
0.22722222,-0.000661
0.22736111,0.000565643
0.2275,0.002950723
0.22763889,0.004459912
0.22777778,0.004460508
0.22791667,0.002527679
0.22805556,0.000459249
0.22819444,-0.00104
0.22833333,-0.00116
0.22847222,-0.00117
0.22861111,-0.00143
0.22875,-0.00256
0.22888889,-0.00319
0.22902778,-0.00294
0.22916667,-0.00119
0.22930556,0.000837291
0.22944444,0.002674157
0.22958333,0.003161127
0.22972222,0.002913172
0.22986111,0.002101059
0.23,0.001936103
0.23013889,0.002008224
0.23027778,0.002267505
0.23041667,0.001411284
0.23055556,-0.000223
0.23069444,-0.00256
0.23083333,-0.00416
0.23097222,-0.00498
0.23111111,-0.00442
0.23125,-0.0033
0.23138889,-0.00171
0.23152778,-0.000528
0.23166667,0.000842655
0.23180556,0.002240235
0.23194444,0.004203165
0.23208333,0.005525643
0.23222222,0.005642618
0.23236111,0.003520394
0.2325,0.000349874
0.23263889,-0.00294
0.23277778,-0.00473
0.23291667,-0.00512
0.23305556,-0.00409
0.23319444,-0.00309
0.23333333,-0.00213
0.23347222,-0.0014
0.23361111,0.000369395
0.23375,0.002818401
0.23388889,0.005618329
0.23402778,0.00668853
0.23416667,0.005777175
0.23430556,0.003082747
0.23444444,0.000717933
0.23458333,-0.000856
0.23472222,-0.00123
0.23486111,-0.00189
0.235,-0.00307
0.23513889,-0.00497
0.23527778,-0.00567
0.23541667,-0.00453
0.23555556,-0.00107
0.23569444,0.002620662
0.23583333,0.005039568
0.23597222,0.004797126
0.23611111,0.003400142
0.23625,0.001912559
0.23638889,0.001451666
0.23652778,0.000856663
0.23666667,-0.000433
0.23680556,-0.00306
0.23694444,-0.00529
0.23708333,-0.00593
0.23722222,-0.00385
0.23736111,-0.000509
0.2375,0.002648527
0.23763889,0.003494317
0.23777778,0.002708877
0.23791667,0.00133201
0.23805556,0.001204754
0.23819444,0.001741791
0.23833333,0.002148593
0.23847222,0.000895704
0.23861111,-0.00116
0.23875,-0.00296
0.23888889,-0.00266
0.23902778,-0.000956
0.23916667,0.001294906
0.23930556,0.002007479
0.23944444,0.001376266
0.23958333,-0.0000744
0.23972222,-0.000289
0.23986111,0.0006324
0.24,0.002118493
0.24013889,0.00208884
0.24027778,0.00061586
0.24041667,-0.00186
0.24055556,-0.00311
0.24069444,-0.00287
0.24083333,-0.00127
0.24097222,-0.00023
0.24111111,5.00627E-05
0.24125,-0.000545
0.24138889,-0.000407
0.24152778,0.000491435
0.24166667,0.001997943
0.24180556,0.002259905
0.24194444,0.001075859
0.24208333,-0.00137
0.24222222,-0.00299
0.24236111,-0.00305
0.2425,-0.00124
0.24263889,0.000584865
0.24277778,0.001721824
0.24291667,0.001501138
0.24305556,0.001234109
0.24319444,0.001173461
0.24333333,0.001798863
0.24347222,0.001720632
0.24361111,0.000778729
0.24375,-0.0012
0.24388889,-0.00251
0.24402778,-0.00256
0.24416667,-0.000786
0.24430556,0.001053805
0.24444444,0.002260948
0.24458333,0.001943404
0.24472222,0.001303846
0.24486111,0.000691409
0.245,0.000919993
0.24513889,0.000915969
0.24527778,0.000410373
0.24541667,-0.00128
0.24555556,-0.0028
0.24569444,-0.00357
0.24583333,-0.00272
0.24597222,-0.00153
0.24611111,-0.000504
0.24625,-0.000533
0.24638889,-0.000487
0.24652778,4.61412E-06
0.24666667,0.001676524
0.24680556,0.003221924
0.24694444,0.004105414
0.24708333,0.003122384
0.24722222,0.001136953
0.24736111,-0.00126
0.2475,-0.00256
0.24763889,-0.00313
0.24777778,-0.00303
0.24791667,-0.00325
0.24805556,-0.00293
0.24819444,-0.00181
0.24833333,0.000860984
0.24847222,0.003643776
0.24861111,0.005780304
0.24875,0.005824859
0.24888889,0.004487778
0.24902778,0.002143676
0.24916667,0.000350321
0.24930556,-0.00091
0.24944444,-0.00147
0.24958333,-0.00244
0.24972222,-0.00346
0.24986111,-0.00437
0.25,-0.00381